Wavelength(nm)	Transmittance_Experimental(%)	Transmittance_Fit(%)	Refractive_index	Extintion_coefficient
200	87.4284	91.0954	1.55196	0
201	87.7778	91.1166	1.55072	0
202	88.0833	91.1379	1.5495	0
203	88.3445	91.1599	1.5483	0
204	88.6347	91.1831	1.54713	0
205	88.9019	91.2077	1.54598	0
206	89.0974	91.234	1.54485	0
207	89.3368	91.2619	1.54374	0
208	89.5293	91.2912	1.54266	0
209	89.6233	91.3218	1.54159	0
210	89.7871	91.3532	1.54054	0
211	89.9014	91.385	1.53951	0
212	90.0156	91.4168	1.5385	0
213	90.1125	91.4481	1.53751	0
214	90.2017	91.4785	1.53653	0
215	90.2305	91.5077	1.53558	0
216	90.3023	91.5353	1.53463	0
217	90.3508	91.5611	1.53371	0
218	90.3561	91.585	1.5328	0
219	90.4009	91.607	1.53191	0
220	90.4139	91.627	1.53103	0
221	90.381	91.6452	1.53017	0
222	90.4711	91.6618	1.52932	0
223	90.4854	91.677	1.52848	0
224	90.4817	91.6911	1.52766	0
225	90.5406	91.7044	1.52686	0
226	90.5586	91.7171	1.52606	0
227	90.5246	91.7295	1.52528	0
228	90.5768	91.742	1.52451	0
229	90.6169	91.7547	1.52376	0
230	90.6068	91.7679	1.52301	0
231	90.7105	91.7818	1.52228	0
232	90.7286	91.7964	1.52156	0
233	90.7557	91.8118	1.52085	0
234	90.8308	91.8281	1.52015	0
235	90.9176	91.8452	1.51946	0
236	90.9641	91.8631	1.51879	0
237	91.0631	91.8817	1.51812	0
238	91.1547	91.9009	1.51746	0
239	91.1746	91.9205	1.51682	0
240	91.2869	91.9404	1.51618	0
241	91.3654	91.9604	1.51555	0
242	91.4115	91.9803	1.51493	0
243	91.4935	92	1.51432	0
244	91.5725	92.0193	1.51372	0
245	91.5896	92.0381	1.51313	0
246	91.6835	92.0563	1.51255	0
247	91.7786	92.0737	1.51198	0
248	91.7758	92.0902	1.51141	0
249	91.8311	92.1058	1.51085	0
250	91.9016	92.1205	1.5103	0
251	91.8791	92.1342	1.50976	0
252	91.9839	92.1469	1.50922	0
253	91.9842	92.1586	1.5087	0
254	91.9937	92.1695	1.50818	0
255	92.0161	92.1796	1.50766	0
256	92.0775	92.1888	1.50716	0
257	92.0553	92.1974	1.50666	0
258	92.0865	92.2055	1.50617	0
259	92.1288	92.213	1.50568	0
260	92.0914	92.2202	1.5052	0
261	92.1585	92.2271	1.50473	0
262	92.1766	92.2338	1.50426	0
263	92.1599	92.2405	1.5038	0
264	92.2055	92.2471	1.50335	0
265	92.2195	92.2539	1.5029	0
266	92.2003	92.2609	1.50246	0
267	92.2584	92.2681	1.50202	0
268	92.2837	92.2756	1.50159	0
269	92.2507	92.2835	1.50117	0
270	92.3192	92.2918	1.50075	0
271	92.3227	92.3004	1.50033	0
272	92.2932	92.3095	1.49992	0
273	92.3581	92.319	1.49952	0
274	92.3726	92.3288	1.49912	0
275	92.3278	92.3391	1.49873	0
276	92.3922	92.3497	1.49834	0
277	92.4223	92.3606	1.49795	0
278	92.3971	92.3718	1.49758	0
279	92.4479	92.3832	1.4972	0
280	92.4564	92.3948	1.49683	0
281	92.4648	92.4066	1.49646	0
282	92.4731	92.4184	1.4961	0
283	92.4813	92.4302	1.49575	0
284	92.4893	92.442	1.49539	0
285	92.4973	92.4537	1.49505	0
286	92.5052	92.4652	1.4947	0
287	92.513	92.4766	1.49436	0
288	92.5206	92.4877	1.49402	0
289	92.5282	92.4986	1.49369	0
290	92.5357	92.5091	1.49336	0
291	92.5431	92.5193	1.49304	0
292	92.5504	92.5291	1.49272	0
293	92.5577	92.5385	1.4924	0
294	92.5648	92.5475	1.49209	0
295	92.5718	92.556	1.49178	0
296	92.5788	92.5642	1.49147	0
297	92.5857	92.5718	1.49117	0
298	92.5925	92.5791	1.49087	0
299	92.5992	92.5859	1.49057	0
300	92.6059	92.5923	1.49028	0
301	92.6124	92.5983	1.48999	0
302	92.6189	92.6039	1.48971	0
303	92.6254	92.6091	1.48942	0
304	92.6317	92.614	1.48914	0
305	92.638	92.6186	1.48887	0
306	92.6442	92.6229	1.48859	0
307	92.6503	92.627	1.48832	0
308	92.6564	92.6308	1.48805	0
309	92.6624	92.6344	1.48779	0
310	92.6683	92.6379	1.48753	0
311	92.6741	92.6412	1.48727	0
312	92.6799	92.6444	1.48701	0
313	92.6857	92.6476	1.48676	0
314	92.6913	92.6507	1.48651	0
315	92.6969	92.6538	1.48626	0
316	92.7025	92.6569	1.48601	0
317	92.708	92.66	1.48577	0
318	92.7134	92.6633	1.48553	0
319	92.7188	92.6665	1.48529	0
320	92.7241	92.6699	1.48505	0
321	92.7293	92.6735	1.48482	0
322	92.7345	92.6771	1.48459	0
323	92.7397	92.6809	1.48436	0
324	92.7448	92.6848	1.48413	0
325	92.7498	92.689	1.48391	0
326	92.7548	92.6932	1.48369	0
327	92.7597	92.6977	1.48347	0
328	92.7646	92.7023	1.48325	0
329	92.7694	92.7071	1.48304	0
330	92.7742	92.7121	1.48282	0
331	92.7789	92.7173	1.48261	0
332	92.7836	92.7226	1.4824	0
333	92.7883	92.7281	1.4822	0
334	92.7928	92.7337	1.48199	0
335	92.7974	92.7394	1.48179	0
336	92.8019	92.7453	1.48159	0
337	92.8063	92.7513	1.48139	0
338	92.8107	92.7574	1.4812	0
339	92.8151	92.7636	1.481	0
340	92.8194	92.7699	1.48081	0
341	92.8237	92.7762	1.48062	0
342	92.828	92.7826	1.48043	0
343	92.8321	92.789	1.48024	0
344	92.8363	92.7954	1.48005	0
345	92.8404	92.8019	1.47987	0
346	92.8445	92.8083	1.47969	0
347	92.8485	92.8147	1.47951	0
348	92.8525	92.821	1.47933	0
349	92.8565	92.8273	1.47915	0
350	92.8604	92.8336	1.47898	0
351	92.8643	92.8397	1.4788	0
352	92.8681	92.8458	1.47863	0
353	92.8719	92.8518	1.47846	0
354	92.8757	92.8576	1.47829	0
355	92.8795	92.8634	1.47812	0
356	92.8832	92.869	1.47796	0
357	92.8868	92.8744	1.47779	0
358	92.8905	92.8797	1.47763	0
359	92.8941	92.8849	1.47747	0
360	92.8977	92.8899	1.47731	0
361	92.9012	92.8948	1.47715	0
362	92.9047	92.8994	1.47699	0
363	92.9082	92.9039	1.47684	0
364	92.9116	92.9083	1.47668	0
365	92.915	92.9125	1.47653	0
366	92.9184	92.9165	1.47638	0
367	92.9218	92.9203	1.47623	0
368	92.9251	92.924	1.47608	0
369	92.9284	92.9275	1.47593	0
370	92.9317	92.9308	1.47578	0
371	92.9349	92.9339	1.47564	0
372	92.9381	92.937	1.47549	0
373	92.9413	92.9398	1.47535	0
374	92.9444	92.9425	1.47521	0
375	92.9476	92.9451	1.47507	0
376	92.9507	92.9475	1.47493	0
377	92.9537	92.9498	1.47479	0
378	92.9568	92.952	1.47466	0
379	92.9598	92.954	1.47452	0
380	92.9628	92.9559	1.47439	0
381	92.9658	92.9578	1.47425	0
382	92.9687	92.9595	1.47412	0
383	92.9716	92.9611	1.47399	0
384	92.9745	92.9627	1.47386	0
385	92.9774	92.9641	1.47373	0
386	92.9802	92.9656	1.4736	0
387	92.9831	92.9669	1.47348	0
388	92.9858	92.9682	1.47335	0
389	92.9886	92.9694	1.47323	0
390	92.9914	92.9707	1.4731	0
391	92.9941	92.9718	1.47298	0
392	92.9968	92.973	1.47286	0
393	92.9995	92.9741	1.47274	0
394	93.0022	92.9752	1.47262	0
395	93.0048	92.9764	1.4725	0
396	93.0074	92.9775	1.47238	0
397	93.01	92.9786	1.47227	0
398	93.0126	92.9797	1.47215	0
399	93.0152	92.9809	1.47203	0
400	93.0177	92.9821	1.47192	0
401	93.0202	92.9833	1.47181	0
402	93.0227	92.9845	1.4717	0
403	93.0252	92.9858	1.47158	0
404	93.0277	92.9871	1.47147	0
405	93.0301	92.9885	1.47136	0
406	93.0325	92.9899	1.47126	0
407	93.0349	92.9913	1.47115	0
408	93.0373	92.9928	1.47104	0
409	93.0397	92.9944	1.47093	0
410	93.042	92.996	1.47083	0
411	93.0443	92.9977	1.47073	0
412	93.0467	92.9994	1.47062	0
413	93.049	93.0012	1.47052	0
414	93.0512	93.0031	1.47042	0
415	93.0535	93.005	1.47032	0
416	93.0557	93.007	1.47021	0
417	93.058	93.009	1.47012	0
418	93.0602	93.0111	1.47002	0
419	93.0623	93.0133	1.46992	0
420	93.0645	93.0155	1.46982	0
421	93.0667	93.0178	1.46972	0
422	93.0688	93.0202	1.46963	0
423	93.0709	93.0226	1.46953	0
424	93.0731	93.0251	1.46944	0
425	93.0752	93.0276	1.46934	0
426	93.0772	93.0301	1.46925	0
427	93.0793	93.0328	1.46916	0
428	93.0814	93.0354	1.46907	0
429	93.0834	93.0381	1.46897	0
430	93.0854	93.0409	1.46888	0
431	93.0874	93.0437	1.46879	0
432	93.0894	93.0465	1.46871	0
433	93.0914	93.0494	1.46862	0
434	93.0934	93.0523	1.46853	0
435	93.0953	93.0553	1.46844	0
436	93.0972	93.0582	1.46836	0
437	93.0992	93.0612	1.46827	0
438	93.1011	93.0642	1.46818	0
439	93.103	93.0673	1.4681	0
440	93.1048	93.0703	1.46802	0
441	93.1067	93.0734	1.46793	0
442	93.1086	93.0764	1.46785	0
443	93.1104	93.0795	1.46777	0
444	93.1122	93.0826	1.46768	0
445	93.1141	93.0857	1.4676	0
446	93.1159	93.0888	1.46752	0
447	93.1176	93.0918	1.46744	0
448	93.1194	93.0949	1.46736	0
449	93.1212	93.098	1.46728	0
450	93.123	93.101	1.46721	0
451	93.1247	93.104	1.46713	0
452	93.1264	93.107	1.46705	0
453	93.1282	93.11	1.46697	0
454	93.1299	93.113	1.4669	0
455	93.1316	93.116	1.46682	0
456	93.1332	93.1189	1.46675	0
457	93.1349	93.1218	1.46667	0
458	93.1366	93.1246	1.4666	0
459	93.1382	93.1275	1.46653	0
460	93.1399	93.1302	1.46645	0
461	93.1415	93.133	1.46638	0
462	93.1431	93.1357	1.46631	0
463	93.1447	93.1384	1.46624	0
464	93.1463	93.141	1.46616	0
465	93.1479	93.1436	1.46609	0
466	93.1495	93.1462	1.46602	0
467	93.1511	93.1487	1.46595	0
468	93.1526	93.1511	1.46588	0
469	93.1542	93.1535	1.46582	0
470	93.1557	93.1559	1.46575	0
471	93.1572	93.1582	1.46568	0
472	93.1588	93.1605	1.46561	0
473	93.1603	93.1627	1.46555	0
474	93.1618	93.1648	1.46548	0
475	93.1633	93.1669	1.46541	0
476	93.1647	93.169	1.46535	0
477	93.1662	93.171	1.46528	0
478	93.1677	93.1729	1.46522	0
479	93.1691	93.1748	1.46515	0
480	93.1706	93.1767	1.46509	0
481	93.172	93.1785	1.46503	0
482	93.1734	93.1802	1.46496	0
483	93.1749	93.1819	1.4649	0
484	93.1763	93.1835	1.46484	0
485	93.1777	93.1851	1.46478	0
486	93.1791	93.1866	1.46471	0
487	93.1804	93.1881	1.46465	0
488	93.1818	93.1895	1.46459	0
489	93.1832	93.1909	1.46453	0
490	93.1845	93.1922	1.46447	0
491	93.1859	93.1935	1.46441	0
492	93.1872	93.1947	1.46435	0
493	93.1886	93.1959	1.46429	0
494	93.1899	93.197	1.46424	0
495	93.1912	93.1981	1.46418	0
496	93.1925	93.1992	1.46412	0
497	93.1938	93.2002	1.46406	0
498	93.1951	93.2011	1.46401	0
499	93.1964	93.2021	1.46395	0
500	93.1977	93.2029	1.46389	0
501	93.1989	93.2038	1.46384	0
502	93.2002	93.2046	1.46378	0
503	93.2015	93.2053	1.46373	0
504	93.2027	93.2061	1.46367	0
505	93.204	93.2068	1.46362	0
506	93.2052	93.2074	1.46356	0
507	93.2064	93.2081	1.46351	0
508	93.2076	93.2086	1.46346	0
509	93.2088	93.2092	1.4634	0
510	93.2101	93.2097	1.46335	0
511	93.2113	93.2103	1.4633	0
512	93.2125	93.2107	1.46324	0
513	93.2136	93.2112	1.46319	0
514	93.2148	93.2116	1.46314	0
515	93.216	93.212	1.46309	0
516	93.2172	93.2124	1.46304	0
517	93.2183	93.2128	1.46299	0
518	93.2195	93.2131	1.46294	0
519	93.2206	93.2135	1.46289	0
520	93.2218	93.2138	1.46284	0
521	93.2229	93.2141	1.46279	0
522	93.224	93.2144	1.46274	0
523	93.2251	93.2146	1.46269	0
524	93.2263	93.2149	1.46264	0
525	93.2274	93.2151	1.46259	0
526	93.2285	93.2154	1.46255	0
527	93.2296	93.2156	1.4625	0
528	93.2307	93.2158	1.46245	0
529	93.2318	93.216	1.4624	0
530	93.2328	93.2163	1.46236	0
531	93.2339	93.2165	1.46231	0
532	93.235	93.2167	1.46226	0
533	93.236	93.2169	1.46222	0
534	93.2371	93.2171	1.46217	0
535	93.2382	93.2173	1.46213	0
536	93.2392	93.2175	1.46208	0
537	93.2402	93.2177	1.46204	0
538	93.2413	93.2179	1.46199	0
539	93.2423	93.2181	1.46195	0
540	93.2433	93.2183	1.4619	0
541	93.2443	93.2185	1.46186	0
542	93.2454	93.2187	1.46181	0
543	93.2464	93.2189	1.46177	0
544	93.2474	93.2191	1.46173	0
545	93.2484	93.2194	1.46168	0
546	93.2494	93.2196	1.46164	0
547	93.2503	93.2199	1.4616	0
548	93.2513	93.2201	1.46156	0
549	93.2523	93.2204	1.46151	0
550	93.2533	93.2207	1.46147	0
551	93.2542	93.221	1.46143	0
552	93.2552	93.2213	1.46139	0
553	93.2562	93.2216	1.46135	0
554	93.2571	93.222	1.46131	0
555	93.2581	93.2223	1.46127	0
556	93.259	93.2226	1.46123	0
557	93.26	93.223	1.46119	0
558	93.2609	93.2234	1.46115	0
559	93.2618	93.2238	1.46111	0
560	93.2627	93.2242	1.46107	0
561	93.2637	93.2246	1.46103	0
562	93.2646	93.2251	1.46099	0
563	93.2655	93.2255	1.46095	0
564	93.2664	93.226	1.46091	0
565	93.2673	93.2265	1.46087	0
566	93.2682	93.227	1.46083	0
567	93.2691	93.2275	1.4608	0
568	93.27	93.228	1.46076	0
569	93.2709	93.2286	1.46072	0
570	93.2717	93.2292	1.46068	0
571	93.2726	93.2297	1.46065	0
572	93.2735	93.2303	1.46061	0
573	93.2744	93.231	1.46057	0
574	93.2752	93.2316	1.46054	0
575	93.2761	93.2322	1.4605	0
576	93.2769	93.2329	1.46046	0
577	93.2778	93.2336	1.46043	0
578	93.2786	93.2343	1.46039	0
579	93.2795	93.235	1.46036	0
580	93.2803	93.2357	1.46032	0
581	93.2812	93.2365	1.46029	0
582	93.282	93.2372	1.46025	0
583	93.2828	93.238	1.46022	0
584	93.2836	93.2388	1.46018	0
585	93.2845	93.2396	1.46015	0
586	93.2853	93.2404	1.46011	0
587	93.2861	93.2413	1.46008	0
588	93.2869	93.2421	1.46004	0
589	93.2877	93.243	1.46001	0
590	93.2885	93.2438	1.45998	0
591	93.2893	93.2447	1.45994	0
592	93.2901	93.2456	1.45991	0
593	93.2909	93.2466	1.45988	0
594	93.2917	93.2475	1.45984	0
595	93.2925	93.2484	1.45981	0
596	93.2933	93.2494	1.45978	0
597	93.294	93.2504	1.45975	0
598	93.2948	93.2513	1.45971	0
599	93.2956	93.2523	1.45968	0
600	93.2963	93.2533	1.45965	0
601	93.2971	93.2544	1.45962	0
602	93.2979	93.2554	1.45959	0
603	93.2986	93.2564	1.45955	0
604	93.2994	93.2575	1.45952	0
605	93.3001	93.2585	1.45949	0
606	93.3009	93.2596	1.45946	0
607	93.3016	93.2607	1.45943	0
608	93.3024	93.2617	1.4594	0
609	93.3031	93.2628	1.45937	0
610	93.3038	93.2639	1.45934	0
611	93.3046	93.265	1.45931	0
612	93.3053	93.2662	1.45928	0
613	93.306	93.2673	1.45925	0
614	93.3067	93.2684	1.45922	0
615	93.3074	93.2695	1.45919	0
616	93.3082	93.2707	1.45916	0
617	93.3089	93.2718	1.45913	0
618	93.3096	93.273	1.4591	0
619	93.3103	93.2741	1.45907	0
620	93.311	93.2753	1.45904	0
621	93.3117	93.2765	1.45901	0
622	93.3124	93.2776	1.45899	0
623	93.3131	93.2788	1.45896	0
624	93.3138	93.28	1.45893	0
625	93.3145	93.2812	1.4589	0
626	93.3152	93.2823	1.45887	0
627	93.3158	93.2835	1.45885	0
628	93.3165	93.2847	1.45882	0
629	93.3172	93.2859	1.45879	0
630	93.3179	93.2871	1.45876	0
631	93.3185	93.2883	1.45874	0
632	93.3192	93.2895	1.45871	0
633	93.3199	93.2906	1.45868	0
634	93.3205	93.2918	1.45865	0
635	93.3212	93.293	1.45863	0
636	93.3219	93.2942	1.4586	0
637	93.3225	93.2954	1.45857	0
638	93.3232	93.2966	1.45855	0
639	93.3238	93.2978	1.45852	0
640	93.3245	93.2989	1.4585	0
641	93.3251	93.3001	1.45847	0
642	93.3258	93.3013	1.45844	0
643	93.3264	93.3025	1.45842	0
644	93.3271	93.3036	1.45839	0
645	93.3277	93.3048	1.45837	0
646	93.3283	93.306	1.45834	0
647	93.329	93.3071	1.45832	0
648	93.3296	93.3083	1.45829	0
649	93.3302	93.3094	1.45827	0
650	93.3308	93.3106	1.45824	0
651	93.3315	93.3117	1.45822	0
652	93.3321	93.3128	1.45819	0
653	93.3327	93.3139	1.45817	0
654	93.3333	93.3151	1.45814	0
655	93.3339	93.3162	1.45812	0
656	93.3345	93.3173	1.45809	0
657	93.3351	93.3184	1.45807	0
658	93.3357	93.3195	1.45804	0
659	93.3363	93.3206	1.45802	0
660	93.3369	93.3217	1.458	0
661	93.3375	93.3227	1.45797	0
662	93.3381	93.3238	1.45795	0
663	93.3387	93.3249	1.45793	0
664	93.3393	93.3259	1.4579	0
665	93.3399	93.327	1.45788	0
666	93.3405	93.328	1.45786	0
667	93.3411	93.329	1.45783	0
668	93.3417	93.33	1.45781	0
669	93.3423	93.3311	1.45779	0
670	93.3428	93.3321	1.45777	0
671	93.3434	93.3331	1.45774	0
672	93.344	93.334	1.45772	0
673	93.3446	93.335	1.4577	0
674	93.3451	93.336	1.45768	0
675	93.3457	93.3369	1.45765	0
676	93.3463	93.3379	1.45763	0
677	93.3468	93.3388	1.45761	0
678	93.3474	93.3397	1.45759	0
679	93.348	93.3407	1.45757	0
680	93.3485	93.3416	1.45754	0
681	93.3491	93.3425	1.45752	0
682	93.3496	93.3434	1.4575	0
683	93.3502	93.3442	1.45748	0
684	93.3507	93.3451	1.45746	0
685	93.3513	93.346	1.45744	0
686	93.3518	93.3468	1.45742	0
687	93.3524	93.3477	1.45739	0
688	93.3529	93.3485	1.45737	0
689	93.3535	93.3493	1.45735	0
690	93.354	93.3501	1.45733	0
691	93.3546	93.3509	1.45731	0
692	93.3551	93.3517	1.45729	0
693	93.3556	93.3525	1.45727	0
694	93.3562	93.3532	1.45725	0
695	93.3567	93.354	1.45723	0
696	93.3572	93.3547	1.45721	0
697	93.3577	93.3554	1.45719	0
698	93.3583	93.3562	1.45717	0
699	93.3588	93.3569	1.45715	0
700	93.3593	93.3576	1.45713	0
701	93.3598	93.3583	1.45711	0
702	93.3604	93.3589	1.45709	0
703	93.3609	93.3596	1.45707	0
704	93.3614	93.3603	1.45705	0
705	93.3619	93.3609	1.45703	0
706	93.3624	93.3615	1.45701	0
707	93.3629	93.3622	1.45699	0
708	93.3634	93.3628	1.45697	0
709	93.364	93.3634	1.45695	0
710	93.3645	93.364	1.45693	0
711	93.365	93.3646	1.45692	0
712	93.3655	93.3651	1.4569	0
713	93.366	93.3657	1.45688	0
714	93.3665	93.3662	1.45686	0
715	93.367	93.3668	1.45684	0
716	93.3675	93.3673	1.45682	0
717	93.368	93.3678	1.4568	0
718	93.3684	93.3683	1.45679	0
719	93.3689	93.3688	1.45677	0
720	93.3694	93.3693	1.45675	0
721	93.3699	93.3698	1.45673	0
722	93.3704	93.3703	1.45671	0
723	93.3709	93.3707	1.45669	0
724	93.3714	93.3712	1.45668	0
725	93.3719	93.3716	1.45666	0
726	93.3723	93.3721	1.45664	0
727	93.3728	93.3725	1.45662	0
728	93.3733	93.3729	1.45661	0
729	93.3738	93.3733	1.45659	0
730	93.3743	93.3737	1.45657	0
731	93.3747	93.3741	1.45655	0
732	93.3752	93.3744	1.45654	0
733	93.3757	93.3748	1.45652	0
734	93.3761	93.3751	1.4565	0
735	93.3766	93.3755	1.45648	0
736	93.3771	93.3758	1.45647	0
737	93.3776	93.3761	1.45645	0
738	93.378	93.3765	1.45643	0
739	93.3785	93.3768	1.45642	0
740	93.379	93.3771	1.4564	0
741	93.3794	93.3774	1.45638	0
742	93.3799	93.3777	1.45637	0
743	93.3803	93.3779	1.45635	0
744	93.3808	93.3782	1.45633	0
745	93.3812	93.3785	1.45632	0
746	93.3817	93.3787	1.4563	0
747	93.3821	93.3789	1.45628	0
748	93.3826	93.3792	1.45627	0
749	93.383	93.3794	1.45625	0
750	93.3835	93.3796	1.45624	0
751	93.3839	93.3798	1.45622	0
752	93.3844	93.38	1.4562	0
753	93.3849	93.3802	1.45619	0
754	93.3853	93.3804	1.45617	0
755	93.3857	93.3806	1.45616	0
756	93.3862	93.3808	1.45614	0
757	93.3866	93.381	1.45613	0
758	93.3871	93.3811	1.45611	0
759	93.3875	93.3813	1.45609	0
760	93.3879	93.3814	1.45608	0
761	93.3884	93.3816	1.45606	0
762	93.3888	93.3817	1.45605	0
763	93.3892	93.3818	1.45603	0
764	93.3897	93.382	1.45602	0
765	93.3901	93.3821	1.456	0
766	93.3905	93.3822	1.45599	0
767	93.391	93.3823	1.45597	0
768	93.3914	93.3824	1.45596	0
769	93.3918	93.3825	1.45594	0
770	93.3923	93.3826	1.45593	0
771	93.3927	93.3826	1.45591	0
772	93.3931	93.3827	1.4559	0
773	93.3935	93.3828	1.45588	0
774	93.3939	93.3829	1.45587	0
775	93.3944	93.3829	1.45585	0
776	93.3948	93.383	1.45584	0
777	93.3952	93.383	1.45583	0
778	93.3956	93.3831	1.45581	0
779	93.396	93.3831	1.4558	0
780	93.3965	93.3832	1.45578	0
781	93.3969	93.3832	1.45577	0
782	93.3973	93.3832	1.45575	0
783	93.3977	93.3832	1.45574	0
784	93.3981	93.3833	1.45573	0
785	93.3985	93.3833	1.45571	0
786	93.3989	93.3833	1.4557	0
787	93.3993	93.3833	1.45568	0
788	93.3997	93.3833	1.45567	0
789	93.4001	93.3833	1.45566	0
790	93.4005	93.3833	1.45564	0
791	93.4009	93.3833	1.45563	0
792	93.4014	93.3833	1.45562	0
793	93.4018	93.3833	1.4556	0
794	93.4022	93.3833	1.45559	0
795	93.4026	93.3832	1.45557	0
796	93.403	93.3832	1.45556	0
797	93.4034	93.3832	1.45555	0
798	93.4038	93.3832	1.45553	0
799	93.4042	93.3831	1.45552	0
800	93.4046	93.3831	1.45551	0
801	93.4049	93.3831	1.45549	0
802	93.4053	93.383	1.45548	0
803	93.4057	93.383	1.45547	0
804	93.4061	93.383	1.45546	0
805	93.4065	93.3829	1.45544	0
806	93.4069	93.3829	1.45543	0
807	93.4073	93.3828	1.45542	0
808	93.4077	93.3828	1.4554	0
809	93.4081	93.3827	1.45539	0
810	93.4085	93.3827	1.45538	0
811	93.4089	93.3826	1.45537	0
812	93.4092	93.3825	1.45535	0
813	93.4096	93.3825	1.45534	0
814	93.41	93.3824	1.45533	0
815	93.4104	93.3824	1.45532	0
816	93.4108	93.3823	1.4553	0
817	93.4112	93.3822	1.45529	0
818	93.4115	93.3822	1.45528	0
819	93.4119	93.3821	1.45527	0
820	93.4123	93.382	1.45525	0
821	93.4127	93.382	1.45524	0
822	93.413	93.3819	1.45523	0
823	93.4134	93.3818	1.45522	0
824	93.4138	93.3818	1.45521	0
825	93.4142	93.3817	1.45519	0
826	93.4145	93.3816	1.45518	0
827	93.4149	93.3815	1.45517	0
828	93.4153	93.3815	1.45516	0
829	93.4156	93.3814	1.45515	0
830	93.416	93.3813	1.45513	0
831	93.4164	93.3812	1.45512	0
832	93.4168	93.3812	1.45511	0
833	93.4171	93.3811	1.4551	0
834	93.4175	93.381	1.45509	0
835	93.4179	93.3809	1.45508	0
836	93.4182	93.3809	1.45506	0
837	93.4186	93.3808	1.45505	0
838	93.419	93.3807	1.45504	0
839	93.4193	93.3807	1.45503	0
840	93.4197	93.3806	1.45502	0
841	93.4201	93.3805	1.45501	0
842	93.4204	93.3804	1.455	0
843	93.4208	93.3804	1.45498	0
844	93.4211	93.3803	1.45497	0
845	93.4215	93.3802	1.45496	0
846	93.4219	93.3802	1.45495	0
847	93.4222	93.3801	1.45494	0
848	93.4226	93.38	1.45493	0
849	93.4229	93.3799	1.45492	0
850	93.4233	93.3799	1.45491	0
851	93.4236	93.3798	1.4549	0
852	93.424	93.3797	1.45488	0
853	93.4244	93.3797	1.45487	0
854	93.4247	93.3796	1.45486	0
855	93.425	93.3796	1.45485	0
856	93.4254	93.3795	1.45484	0
857	93.4258	93.3794	1.45483	0
858	93.4261	93.3794	1.45482	0
859	93.4265	93.3793	1.45481	0
860	93.4268	93.3793	1.4548	0
861	93.4272	93.3792	1.45479	0
862	93.4275	93.3792	1.45478	0
863	93.4279	93.3791	1.45477	0
864	93.4282	93.379	1.45476	0
865	93.4286	93.379	1.45475	0
866	93.4289	93.379	1.45474	0
867	93.4292	93.3789	1.45473	0
868	93.4296	93.3789	1.45472	0
869	93.4299	93.3788	1.45471	0
870	93.4303	93.3788	1.45469	0
871	93.4306	93.3787	1.45468	0
872	93.4309	93.3787	1.45467	0
873	93.4313	93.3787	1.45466	0
874	93.4316	93.3786	1.45465	0
875	93.432	93.3786	1.45464	0
876	93.4323	93.3786	1.45463	0
877	93.4327	93.3785	1.45462	0
878	93.433	93.3785	1.45461	0
879	93.4333	93.3785	1.4546	0
880	93.4337	93.3784	1.45459	0
881	93.434	93.3784	1.45458	0
882	93.4343	93.3784	1.45457	0
883	93.4347	93.3784	1.45456	0
884	93.435	93.3784	1.45456	0
885	93.4354	93.3784	1.45455	0
886	93.4357	93.3783	1.45454	0
887	93.436	93.3783	1.45453	0
888	93.4364	93.3783	1.45452	0
889	93.4367	93.3783	1.45451	0
890	93.437	93.3783	1.4545	0
891	93.4373	93.3783	1.45449	0
892	93.4377	93.3783	1.45448	0
893	93.438	93.3783	1.45447	0
894	93.4383	93.3783	1.45446	0
895	93.4387	93.3783	1.45445	0
896	93.439	93.3783	1.45444	0
897	93.4393	93.3783	1.45443	0
898	93.4397	93.3783	1.45442	0
899	93.44	93.3784	1.45441	0
900	93.4403	93.3784	1.4544	0
901	93.4406	93.3784	1.45439	0
902	93.441	93.3784	1.45439	0
903	93.4413	93.3784	1.45438	0
904	93.4416	93.3785	1.45437	0
905	93.4419	93.3785	1.45436	0
906	93.4423	93.3785	1.45435	0
907	93.4426	93.3786	1.45434	0
908	93.4429	93.3786	1.45433	0
909	93.4432	93.3786	1.45432	0
910	93.4435	93.3787	1.45431	0
911	93.4439	93.3787	1.4543	0
912	93.4442	93.3787	1.4543	0
913	93.4445	93.3788	1.45429	0
914	93.4448	93.3788	1.45428	0
915	93.4451	93.3789	1.45427	0
916	93.4455	93.3789	1.45426	0
917	93.4458	93.379	1.45425	0
918	93.4461	93.3791	1.45424	0
919	93.4464	93.3791	1.45423	0
920	93.4467	93.3792	1.45423	0
921	93.4471	93.3792	1.45422	0
922	93.4474	93.3793	1.45421	0
923	93.4477	93.3794	1.4542	0
924	93.448	93.3794	1.45419	0
925	93.4483	93.3795	1.45418	0
926	93.4486	93.3796	1.45417	0
927	93.4489	93.3797	1.45417	0
928	93.4493	93.3798	1.45416	0
929	93.4496	93.3798	1.45415	0
930	93.4499	93.3799	1.45414	0
931	93.4502	93.38	1.45413	0
932	93.4505	93.3801	1.45412	0
933	93.4508	93.3802	1.45412	0
934	93.4511	93.3803	1.45411	0
935	93.4514	93.3804	1.4541	0
936	93.4517	93.3805	1.45409	0
937	93.4521	93.3806	1.45408	0
938	93.4524	93.3807	1.45407	0
939	93.4527	93.3808	1.45407	0
940	93.453	93.3809	1.45406	0
941	93.4533	93.381	1.45405	0
942	93.4536	93.3811	1.45404	0
943	93.4539	93.3812	1.45403	0
944	93.4542	93.3813	1.45403	0
945	93.4545	93.3815	1.45402	0
946	93.4548	93.3816	1.45401	0
947	93.4551	93.3817	1.454	0
948	93.4554	93.3818	1.45399	0
949	93.4557	93.3819	1.45399	0
950	93.456	93.3821	1.45398	0
951	93.4564	93.3822	1.45397	0
952	93.4566	93.3823	1.45396	0
953	93.457	93.3825	1.45396	0
954	93.4573	93.3826	1.45395	0
955	93.4576	93.3828	1.45394	0
956	93.4579	93.3829	1.45393	0
957	93.4582	93.383	1.45392	0
958	93.4585	93.3832	1.45392	0
959	93.4588	93.3833	1.45391	0
960	93.4591	93.3835	1.4539	0
961	93.4594	93.3836	1.45389	0
962	93.4597	93.3838	1.45389	0
963	93.46	93.3839	1.45388	0
964	93.4603	93.3841	1.45387	0
965	93.4606	93.3843	1.45386	0
966	93.4609	93.3844	1.45386	0
967	93.4612	93.3846	1.45385	0
968	93.4615	93.3848	1.45384	0
969	93.4618	93.3849	1.45383	0
970	93.4621	93.3851	1.45383	0
971	93.4624	93.3853	1.45382	0
972	93.4626	93.3854	1.45381	0
973	93.463	93.3856	1.45381	0
974	93.4633	93.3858	1.4538	0
975	93.4635	93.386	1.45379	0
976	93.4638	93.3861	1.45378	0
977	93.4641	93.3863	1.45378	0
978	93.4644	93.3865	1.45377	0
979	93.4647	93.3867	1.45376	0
980	93.465	93.3869	1.45376	0
981	93.4653	93.3871	1.45375	0
982	93.4656	93.3873	1.45374	0
983	93.4659	93.3875	1.45373	0
984	93.4662	93.3877	1.45373	0
985	93.4665	93.3879	1.45372	0
986	93.4668	93.3881	1.45371	0
987	93.4671	93.3883	1.45371	0
988	93.4674	93.3885	1.4537	0
989	93.4677	93.3887	1.45369	0
990	93.4679	93.3889	1.45369	0
991	93.4682	93.3891	1.45368	0
992	93.4685	93.3893	1.45367	0
993	93.4688	93.3895	1.45366	0
994	93.4691	93.3897	1.45366	0
995	93.4694	93.3899	1.45365	0
996	93.4697	93.3901	1.45364	0
997	93.47	93.3903	1.45364	0
998	93.4703	93.3906	1.45363	0
999	93.4706	93.3908	1.45362	0
1000	93.4708	93.391	1.45362	0
1001	93.4711	93.3912	1.45361	0
1002	93.4714	93.3914	1.4536	0
1003	93.4717	93.3917	1.4536	0
1004	93.472	93.3919	1.45359	0
1005	93.4723	93.3921	1.45358	0
1006	93.4726	93.3924	1.45358	0
1007	93.4728	93.3926	1.45357	0
1008	93.4731	93.3928	1.45356	0
1009	93.4734	93.3931	1.45356	0
1010	93.4737	93.3933	1.45355	0
1011	93.474	93.3935	1.45354	0
1012	93.4743	93.3938	1.45354	0
1013	93.4746	93.394	1.45353	0
1014	93.4749	93.3942	1.45353	0
1015	93.4751	93.3945	1.45352	0
1016	93.4754	93.3947	1.45351	0
1017	93.4757	93.395	1.45351	0
1018	93.476	93.3952	1.4535	0
1019	93.4763	93.3955	1.45349	0
1020	93.4766	93.3957	1.45349	0
1021	93.4768	93.396	1.45348	0
1022	93.4771	93.3962	1.45347	0
1023	93.4774	93.3964	1.45347	0
1024	93.4777	93.3967	1.45346	0
1025	93.478	93.397	1.45346	0
1026	93.4783	93.3972	1.45345	0
1027	93.4785	93.3975	1.45344	0
1028	93.4788	93.3977	1.45344	0
1029	93.4791	93.398	1.45343	0
1030	93.4794	93.3982	1.45342	0
1031	93.4797	93.3985	1.45342	0
1032	93.4799	93.3987	1.45341	0
1033	93.4802	93.399	1.45341	0
1034	93.4805	93.3993	1.4534	0
1035	93.4808	93.3995	1.45339	0
1036	93.4811	93.3998	1.45339	0
1037	93.4813	93.4001	1.45338	0
1038	93.4816	93.4003	1.45338	0
1039	93.4819	93.4006	1.45337	0
1040	93.4822	93.4009	1.45336	0
1041	93.4825	93.4011	1.45336	0
1042	93.4827	93.4014	1.45335	0
1043	93.483	93.4017	1.45335	0
1044	93.4833	93.4019	1.45334	0
1045	93.4836	93.4022	1.45334	0
1046	93.4838	93.4025	1.45333	0
1047	93.4841	93.4027	1.45332	0
1048	93.4844	93.403	1.45332	0
1049	93.4847	93.4033	1.45331	0
1050	93.4849	93.4036	1.45331	0
1051	93.4852	93.4038	1.4533	0
1052	93.4855	93.4041	1.45329	0
1053	93.4858	93.4044	1.45329	0
1054	93.4861	93.4047	1.45328	0
1055	93.4863	93.4049	1.45328	0
1056	93.4866	93.4052	1.45327	0
1057	93.4869	93.4055	1.45327	0
1058	93.4872	93.4058	1.45326	0
1059	93.4874	93.4061	1.45325	0
1060	93.4877	93.4063	1.45325	0
1061	93.488	93.4066	1.45324	0
1062	93.4883	93.4069	1.45324	0
1063	93.4885	93.4072	1.45323	0
1064	93.4888	93.4075	1.45323	0
1065	93.4891	93.4077	1.45322	0
1066	93.4894	93.408	1.45322	0
1067	93.4896	93.4083	1.45321	0
1068	93.4899	93.4086	1.4532	0
1069	93.4902	93.4089	1.4532	0
1070	93.4904	93.4092	1.45319	0
1071	93.4907	93.4094	1.45319	0
1072	93.491	93.4097	1.45318	0
1073	93.4913	93.41	1.45318	0
1074	93.4915	93.4103	1.45317	0
1075	93.4918	93.4106	1.45317	0
1076	93.4921	93.4109	1.45316	0
1077	93.4924	93.4112	1.45316	0
1078	93.4926	93.4115	1.45315	0
1079	93.4929	93.4117	1.45315	0
1080	93.4932	93.412	1.45314	0
1081	93.4934	93.4123	1.45313	0
1082	93.4937	93.4126	1.45313	0
1083	93.494	93.4129	1.45312	0
1084	93.4943	93.4132	1.45312	0
1085	93.4945	93.4135	1.45311	0
1086	93.4948	93.4138	1.45311	0
1087	93.4951	93.414	1.4531	0
1088	93.4953	93.4143	1.4531	0
1089	93.4956	93.4146	1.45309	0
1090	93.4959	93.4149	1.45309	0
1091	93.4962	93.4152	1.45308	0
1092	93.4964	93.4155	1.45308	0
1093	93.4967	93.4158	1.45307	0
1094	93.497	93.4161	1.45307	0
1095	93.4972	93.4164	1.45306	0
1096	93.4975	93.4167	1.45306	0
1097	93.4978	93.4169	1.45305	0
1098	93.498	93.4172	1.45305	0
1099	93.4983	93.4175	1.45304	0
1100	93.4986	93.4178	1.45304	0
1101	93.4988	93.4181	1.45303	0
1102	93.4991	93.4184	1.45303	0
1103	93.4994	93.4187	1.45302	0
1104	93.4997	93.419	1.45302	0
1105	93.4999	93.4193	1.45301	0
1106	93.5002	93.4196	1.45301	0
1107	93.5005	93.4198	1.453	0
1108	93.5007	93.4201	1.453	0
1109	93.501	93.4204	1.45299	0
1110	93.5012	93.4207	1.45299	0
1111	93.5015	93.421	1.45298	0
1112	93.5018	93.4213	1.45298	0
1113	93.502	93.4216	1.45297	0
1114	93.5023	93.4219	1.45297	0
1115	93.5026	93.4222	1.45296	0
1116	93.5028	93.4224	1.45296	0
1117	93.5031	93.4227	1.45295	0
1118	93.5034	93.423	1.45295	0
1119	93.5036	93.4233	1.45294	0
1120	93.5039	93.4236	1.45294	0
1121	93.5042	93.4239	1.45293	0
1122	93.5045	93.4242	1.45293	0
1123	93.5047	93.4245	1.45293	0
1124	93.505	93.4247	1.45292	0
1125	93.5053	93.425	1.45292	0
1126	93.5055	93.4253	1.45291	0
1127	93.5058	93.4256	1.45291	0
1128	93.5061	93.4259	1.4529	0
1129	93.5063	93.4262	1.4529	0
1130	93.5066	93.4265	1.45289	0
1131	93.5075	93.4267	1.45289	0
1132	93.5077	93.427	1.45288	0
1133	93.508	93.4273	1.45288	0
1134	93.5083	93.4276	1.45287	0
1135	93.5085	93.4279	1.45287	0
1136	93.5088	93.4282	1.45286	0
1137	93.5091	93.4284	1.45286	0
1138	93.5093	93.4287	1.45286	0
1139	93.5096	93.429	1.45285	0
1140	93.5098	93.4293	1.45285	0
1141	93.5101	93.4296	1.45284	0
1142	93.5104	93.4299	1.45284	0
1143	93.5106	93.4301	1.45283	0
1144	93.5109	93.4304	1.45283	0
1145	93.5112	93.4307	1.45282	0
1146	93.5114	93.431	1.45282	0
1147	93.5117	93.4313	1.45282	0
1148	93.5119	93.4315	1.45281	0
1149	93.5122	93.4318	1.45281	0
1150	93.5125	93.4321	1.4528	0
1151	93.5127	93.4324	1.4528	0
1152	93.513	93.4326	1.45279	0
1153	93.5133	93.4329	1.45279	0
1154	93.5135	93.4332	1.45278	0
1155	93.5138	93.4335	1.45278	0
1156	93.514	93.4337	1.45278	0
1157	93.5143	93.434	1.45277	0
1158	93.5146	93.4343	1.45277	0
1159	93.5148	93.4346	1.45276	0
1160	93.5151	93.4348	1.45276	0
1161	93.5153	93.4351	1.45275	0
1162	93.5156	93.4354	1.45275	0
1163	93.5159	93.4356	1.45275	0
1164	93.5161	93.4359	1.45274	0
1165	93.5164	93.4362	1.45274	0
1166	93.5167	93.4365	1.45273	0
1167	93.5169	93.4367	1.45273	0
1168	93.5172	93.437	1.45273	0
1169	93.5174	93.4373	1.45272	0
1170	93.5177	93.4375	1.45272	0
1171	93.518	93.4378	1.45271	0
1172	93.5182	93.4381	1.45271	0
1173	93.5185	93.4383	1.4527	0
1174	93.5187	93.4386	1.4527	0
1175	93.519	93.4388	1.4527	0
1176	93.5193	93.4391	1.45269	0
1177	93.5195	93.4394	1.45269	0
1178	93.5198	93.4396	1.45268	0
1179	93.52	93.4399	1.45268	0
1180	93.5203	93.4402	1.45268	0
1181	93.5206	93.4404	1.45267	0
1182	93.5208	93.4407	1.45267	0
1183	93.5211	93.4409	1.45266	0
1184	93.5213	93.4412	1.45266	0
1185	93.5216	93.4414	1.45266	0
1186	93.5219	93.4417	1.45265	0
1187	93.5221	93.442	1.45265	0
1188	93.5224	93.4422	1.45264	0
1189	93.5226	93.4425	1.45264	0
1190	93.5229	93.4427	1.45264	0
1191	93.5232	93.443	1.45263	0
1192	93.5234	93.4432	1.45263	0
1193	93.5237	93.4435	1.45262	0
1194	93.5239	93.4437	1.45262	0
1195	93.5242	93.444	1.45262	0
1196	93.5245	93.4442	1.45261	0
1197	93.5247	93.4445	1.45261	0
1198	93.525	93.4447	1.4526	0
1199	93.5252	93.445	1.4526	0
1200	93.5255	93.4452	1.4526	0
1201	93.5258	93.4455	1.45259	0
1202	93.526	93.4457	1.45259	0
1203	93.5263	93.446	1.45259	0
1204	93.5265	93.4462	1.45258	0
1205	93.5268	93.4464	1.45258	0
1206	93.5271	93.4467	1.45257	0
1207	93.5273	93.4469	1.45257	0
1208	93.5276	93.4472	1.45257	0
1209	93.5278	93.4474	1.45256	0
1210	93.5281	93.4476	1.45256	0
1211	93.5284	93.4479	1.45255	0
1212	93.5286	93.4481	1.45255	0
1213	93.5289	93.4484	1.45255	0
1214	93.5291	93.4486	1.45254	0
1215	93.5294	93.4488	1.45254	0
1216	93.5296	93.4491	1.45254	0
1217	93.5299	93.4493	1.45253	0
1218	93.5302	93.4495	1.45253	0
1219	93.5304	93.4498	1.45253	0
1220	93.5307	93.45	1.45252	0
1221	93.5309	93.4502	1.45252	0
1222	93.5312	93.4504	1.45251	0
1223	93.5315	93.4507	1.45251	0
1224	93.5317	93.4509	1.45251	0
1225	93.532	93.4511	1.4525	0
1226	93.5322	93.4514	1.4525	0
1227	93.5325	93.4516	1.4525	0
1228	93.5327	93.4518	1.45249	0
1229	93.533	93.452	1.45249	0
1230	93.5333	93.4522	1.45249	0
1231	93.5335	93.4525	1.45248	0
1232	93.5338	93.4527	1.45248	0
1233	93.534	93.4529	1.45247	0
1234	93.5343	93.4531	1.45247	0
1235	93.5345	93.4533	1.45247	0
1236	93.5348	93.4536	1.45246	0
1237	93.5351	93.4538	1.45246	0
1238	93.5353	93.454	1.45246	0
1239	93.5356	93.4542	1.45245	0
1240	93.5358	93.4544	1.45245	0
1241	93.5361	93.4546	1.45245	0
1242	93.5363	93.4549	1.45244	0
1243	93.5366	93.4551	1.45244	0
1244	93.5369	93.4553	1.45244	0
1245	93.5371	93.4555	1.45243	0
1246	93.5374	93.4557	1.45243	0
1247	93.5376	93.4559	1.45243	0
1248	93.5379	93.4561	1.45242	0
1249	93.5382	93.4563	1.45242	0
1250	93.5384	93.4565	1.45242	0
1251	93.5387	93.4567	1.45241	0
1252	93.5389	93.4569	1.45241	0
1253	93.5392	93.4571	1.45241	0
1254	93.5394	93.4573	1.4524	0
1255	93.5397	93.4575	1.4524	0
1256	93.54	93.4577	1.4524	0
1257	93.5402	93.4579	1.45239	0
1258	93.5405	93.4581	1.45239	0
1259	93.5407	93.4583	1.45238	0
1260	93.541	93.4585	1.45238	0
1261	93.5412	93.4587	1.45238	0
1262	93.5415	93.4589	1.45237	0
1263	93.5418	93.4591	1.45237	0
1264	93.542	93.4593	1.45237	0
1265	93.5423	93.4595	1.45237	0
1266	93.5425	93.4597	1.45236	0
1267	93.5428	93.4599	1.45236	0
1268	93.543	93.4601	1.45236	0
1269	93.5433	93.4603	1.45235	0
1270	93.5436	93.4605	1.45235	0
1271	93.5438	93.4606	1.45235	0
1272	93.5441	93.4608	1.45234	0
1273	93.5443	93.461	1.45234	0
1274	93.5446	93.4612	1.45234	0
1275	93.5448	93.4614	1.45233	0
1276	93.5451	93.4616	1.45233	0
1277	93.5454	93.4618	1.45233	0
1278	93.5456	93.4619	1.45232	0
1279	93.5459	93.4621	1.45232	0
1280	93.5461	93.4623	1.45232	0
1281	93.5464	93.4625	1.45231	0
1282	93.5467	93.4627	1.45231	0
1283	93.5469	93.4628	1.45231	0
1284	93.5472	93.463	1.4523	0
1285	93.5474	93.4632	1.4523	0
1286	93.5477	93.4634	1.4523	0
1287	93.5479	93.4635	1.45229	0
1288	93.5482	93.4637	1.45229	0
1289	93.5485	93.4639	1.45229	0
1290	93.5487	93.464	1.45229	0
1291	93.549	93.4642	1.45228	0
1292	93.5492	93.4644	1.45228	0
1293	93.5495	93.4646	1.45228	0
1294	93.5497	93.4647	1.45227	0
1295	93.55	93.4649	1.45227	0
1296	93.5503	93.4651	1.45227	0
1297	93.5505	93.4652	1.45226	0
1298	93.5508	93.4654	1.45226	0
1299	93.551	93.4655	1.45226	0
1300	93.5513	93.4657	1.45225	0
1301	93.5515	93.4659	1.45225	0
1302	93.5518	93.466	1.45225	0
1303	93.5521	93.4662	1.45225	0
1304	93.5523	93.4664	1.45224	0
1305	93.5526	93.4665	1.45224	0
1306	93.5528	93.4667	1.45224	0
1307	93.5531	93.4668	1.45223	0
1308	93.5533	93.467	1.45223	0
1309	93.5536	93.4671	1.45223	0
1310	93.5539	93.4673	1.45222	0
1311	93.5541	93.4674	1.45222	0
1312	93.5544	93.4676	1.45222	0
1313	93.5546	93.4677	1.45222	0
1314	93.5549	93.4679	1.45221	0
1315	93.5551	93.468	1.45221	0
1316	93.5554	93.4682	1.45221	0
1317	93.5557	93.4683	1.4522	0
1318	93.5559	93.4685	1.4522	0
1319	93.5562	93.4686	1.4522	0
1320	93.5564	93.4688	1.4522	0
1321	93.5567	93.4689	1.45219	0
1322	93.557	93.4691	1.45219	0
1323	93.5572	93.4692	1.45219	0
1324	93.5575	93.4694	1.45218	0
1325	93.5577	93.4695	1.45218	0
1326	93.558	93.4696	1.45218	0
1327	93.5582	93.4698	1.45218	0
1328	93.5585	93.4699	1.45217	0
1329	93.5588	93.4701	1.45217	0
1330	93.559	93.4702	1.45217	0
1331	93.5593	93.4703	1.45216	0
1332	93.5595	93.4705	1.45216	0
1333	93.5598	93.4706	1.45216	0
1334	93.5601	93.4707	1.45216	0
1335	93.5603	93.4709	1.45215	0
1336	93.5606	93.471	1.45215	0
1337	93.5608	93.4711	1.45215	0
1338	93.5611	93.4713	1.45214	0
1339	93.5613	93.4714	1.45214	0
1340	93.5616	93.4715	1.45214	0
1341	93.5619	93.4716	1.45214	0
1342	93.5621	93.4718	1.45213	0
1343	93.5624	93.4719	1.45213	0
1344	93.5626	93.472	1.45213	0
1345	93.5629	93.4721	1.45213	0
1346	93.5631	93.4723	1.45212	0
1347	93.5634	93.4724	1.45212	0
1348	93.5637	93.4725	1.45212	0
1349	93.5639	93.4726	1.45211	0
1350	93.5381	93.4728	1.45211	0
1351	93.5376	93.4729	1.45211	0
1352	93.5333	93.473	1.45211	0
1353	93.5382	93.4731	1.4521	0
1354	93.4957	93.4732	1.4521	0
1355	93.4962	93.4734	1.4521	0
1356	93.456	93.4735	1.4521	0
1357	93.3873	93.4736	1.45209	0
1358	93.3446	93.4737	1.45209	0
1359	93.2952	93.4738	1.45209	0
1360	93.3273	93.4739	1.45208	0
1361	93.2425	93.474	1.45208	0
1362	93.1583	93.4741	1.45208	0
1363	93.0911	93.4743	1.45208	0
1364	92.9936	93.4744	1.45207	0
1365	92.8568	93.4745	1.45207	0
1366	92.7257	93.4746	1.45207	0
1367	92.5358	93.4747	1.45207	0
1368	92.3058	93.4748	1.45206	0
1369	91.9378	93.4749	1.45206	0
1370	91.5234	93.475	1.45206	0
1371	90.9556	93.4751	1.45206	0
1372	90.2426	93.4752	1.45205	0
1373	89.4135	93.4753	1.45205	0
1374	88.4625	93.4754	1.45205	0
1375	87.5349	93.4755	1.45205	0
1376	86.4902	93.4756	1.45204	0
1377	85.5521	93.4757	1.45204	0
1378	84.6921	93.4758	1.45204	0
1379	83.8979	93.4759	1.45204	0
1380	83.4033	93.476	1.45203	0
1381	83.1645	93.4761	1.45203	0
1382	82.8801	93.4762	1.45203	0
1383	82.7628	93.4763	1.45203	0
1384	82.794	93.4764	1.45202	0
1385	82.9541	93.4765	1.45202	0
1386	83.2393	93.4766	1.45202	0
1387	83.6181	93.4767	1.45202	0
1388	84.0067	93.4768	1.45201	0
1389	84.3896	93.4769	1.45201	0
1390	84.8188	93.477	1.45201	0
1391	85.2608	93.477	1.45201	0
1392	85.7811	93.4771	1.452	0
1393	86.2242	93.4772	1.452	0
1394	86.7115	93.4773	1.452	0
1395	87.2559	93.4774	1.452	0
1396	87.538	93.4775	1.45199	0
1397	87.9956	93.4776	1.45199	0
1398	88.3363	93.4777	1.45199	0
1399	88.7237	93.4777	1.45199	0
1400	89.2172	93.4778	1.45198	0
1401	89.3998	93.4779	1.45198	0
1402	89.7364	93.478	1.45198	0
1403	89.9681	93.4781	1.45198	0
1404	90.2826	93.4781	1.45197	0
1405	90.5486	93.4782	1.45197	0
1406	90.7526	93.4783	1.45197	0
1407	90.9612	93.4784	1.45197	0
1408	91.1813	93.4785	1.45196	0
1409	91.3643	93.4785	1.45196	0
1410	91.5121	93.4786	1.45196	0
1411	91.6932	93.4787	1.45196	0
1412	91.8429	93.4788	1.45195	0
1413	91.9894	93.4788	1.45195	0
1414	92.129	93.4789	1.45195	0
1415	92.2414	93.479	1.45195	0
1416	92.3278	93.4791	1.45195	0
1417	92.4424	93.4791	1.45194	0
1418	92.5624	93.4792	1.45194	0
1419	92.6382	93.4793	1.45194	0
1420	92.7051	93.4793	1.45194	0
1421	92.8077	93.4794	1.45193	0
1422	92.8932	93.4795	1.45193	0
1423	92.9771	93.4795	1.45193	0
1424	93.0525	93.4796	1.45193	0
1425	93.1113	93.4797	1.45192	0
1426	93.1897	93.4797	1.45192	0
1427	93.2345	93.4798	1.45192	0
1428	93.2875	93.4799	1.45192	0
1429	93.3408	93.4799	1.45192	0
1430	93.3857	93.48	1.45191	0
1431	93.4511	93.4801	1.45191	0
1432	93.5163	93.4801	1.45191	0
1433	93.5692	93.4802	1.45191	0
1434	93.5861	93.4802	1.4519	0
1435	93.5863	93.4803	1.4519	0
1436	93.5866	93.4804	1.4519	0
1437	93.5869	93.4804	1.4519	0
1438	93.5871	93.4805	1.4519	0
1439	93.5874	93.4805	1.45189	0
1440	93.5876	93.4806	1.45189	0
1441	93.5879	93.4807	1.45189	0
1442	93.5882	93.4807	1.45189	0
1443	93.5884	93.4808	1.45188	0
1444	93.5887	93.4808	1.45188	0
1445	93.589	93.4809	1.45188	0
1446	93.5892	93.4809	1.45188	0
1447	93.5895	93.481	1.45188	0
1448	93.5898	93.481	1.45187	0
1449	93.59	93.4811	1.45187	0
1450	93.5903	93.4811	1.45187	0
1451	93.5905	93.4812	1.45187	0
1452	93.5908	93.4812	1.45186	0
1453	93.5911	93.4813	1.45186	0
1454	93.5913	93.4813	1.45186	0
1455	93.5916	93.4814	1.45186	0
1456	93.5919	93.4814	1.45186	0
1457	93.5921	93.4815	1.45185	0
1458	93.5924	93.4815	1.45185	0
1459	93.5927	93.4816	1.45185	0
1460	93.5929	93.4816	1.45185	0
1461	93.5932	93.4817	1.45185	0
1462	93.5935	93.4817	1.45184	0
1463	93.5937	93.4817	1.45184	0
1464	93.594	93.4818	1.45184	0
1465	93.5943	93.4818	1.45184	0
1466	93.5945	93.4819	1.45183	0
1467	93.5948	93.4819	1.45183	0
1468	93.5951	93.4819	1.45183	0
1469	93.5953	93.482	1.45183	0
1470	93.5956	93.482	1.45183	0
1471	93.5958	93.4821	1.45182	0
1472	93.5961	93.4821	1.45182	0
1473	93.5964	93.4821	1.45182	0
1474	93.5966	93.4822	1.45182	0
1475	93.5969	93.4822	1.45182	0
1476	93.5972	93.4823	1.45181	0
1477	93.5974	93.4823	1.45181	0
1478	93.5977	93.4823	1.45181	0
1479	93.598	93.4824	1.45181	0
1480	93.5982	93.4824	1.45181	0
1481	93.5985	93.4824	1.4518	0
1482	93.5988	93.4825	1.4518	0
1483	93.599	93.4825	1.4518	0
1484	93.5993	93.4825	1.4518	0
1485	93.5996	93.4826	1.4518	0
1486	93.5998	93.4826	1.45179	0
1487	93.6001	93.4826	1.45179	0
1488	93.6004	93.4827	1.45179	0
1489	93.6006	93.4827	1.45179	0
1490	93.6009	93.4827	1.45179	0
1491	93.6012	93.4827	1.45178	0
1492	93.6014	93.4828	1.45178	0
1493	93.6017	93.4828	1.45178	0
1494	93.602	93.4828	1.45178	0
1495	93.6022	93.4828	1.45178	0
1496	93.6025	93.4829	1.45177	0
1497	93.6028	93.4829	1.45177	0
1498	93.603	93.4829	1.45177	0
1499	93.6033	93.483	1.45177	0
1500	93.6036	93.483	1.45177	0
1501	93.6038	93.483	1.45176	0
1502	93.6041	93.483	1.45176	0
1503	93.6044	93.483	1.45176	0
1504	93.6046	93.4831	1.45176	0
1505	93.6049	93.4831	1.45176	0
1506	93.6052	93.4831	1.45175	0
1507	93.6055	93.4831	1.45175	0
1508	93.6057	93.4832	1.45175	0
1509	93.606	93.4832	1.45175	0
1510	93.6063	93.4832	1.45175	0
1511	93.6065	93.4832	1.45174	0
1512	93.6068	93.4832	1.45174	0
1513	93.6071	93.4832	1.45174	0
1514	93.6073	93.4833	1.45174	0
1515	93.6076	93.4833	1.45174	0
1516	93.6079	93.4833	1.45173	0
1517	93.6081	93.4833	1.45173	0
1518	93.6084	93.4833	1.45173	0
1519	93.6087	93.4833	1.45173	0
1520	93.6089	93.4834	1.45173	0
1521	93.6092	93.4834	1.45172	0
1522	93.6095	93.4834	1.45172	0
1523	93.6098	93.4834	1.45172	0
1524	93.61	93.4834	1.45172	0
1525	93.6103	93.4834	1.45172	0
1526	93.6106	93.4834	1.45172	0
1527	93.6108	93.4835	1.45171	0
1528	93.6111	93.4835	1.45171	0
1529	93.6114	93.4835	1.45171	0
1530	93.6116	93.4835	1.45171	0
1531	93.6119	93.4835	1.45171	0
1532	93.6122	93.4835	1.4517	0
1533	93.6124	93.4835	1.4517	0
1534	93.6127	93.4835	1.4517	0
1535	93.613	93.4835	1.4517	0
1536	93.6133	93.4835	1.4517	0
1537	93.6135	93.4836	1.4517	0
1538	93.6138	93.4836	1.45169	0
1539	93.6141	93.4836	1.45169	0
1540	93.6144	93.4836	1.45169	0
1541	93.6146	93.4836	1.45169	0
1542	93.6149	93.4836	1.45169	0
1543	93.6152	93.4836	1.45168	0
1544	93.6154	93.4836	1.45168	0
1545	93.6157	93.4836	1.45168	0
1546	93.616	93.4836	1.45168	0
1547	93.6162	93.4836	1.45168	0
1548	93.6165	93.4836	1.45168	0
1549	93.6168	93.4836	1.45167	0
1550	93.6171	93.4836	1.45167	0
1551	93.6173	93.4836	1.45167	0
1552	93.6176	93.4836	1.45167	0
1553	93.6179	93.4836	1.45167	0
1554	93.6182	93.4836	1.45166	0
1555	93.6184	93.4836	1.45166	0
1556	93.6187	93.4836	1.45166	0
1557	93.619	93.4836	1.45166	0
1558	93.6192	93.4836	1.45166	0
1559	93.6195	93.4836	1.45166	0
1560	93.6198	93.4836	1.45165	0
1561	93.6201	93.4836	1.45165	0
1562	93.6203	93.4836	1.45165	0
1563	93.6206	93.4836	1.45165	0
1564	93.6209	93.4836	1.45165	0
1565	93.6212	93.4836	1.45165	0
1566	93.6214	93.4836	1.45164	0
1567	93.6217	93.4836	1.45164	0
1568	93.622	93.4836	1.45164	0
1569	93.6222	93.4836	1.45164	0
1570	93.6225	93.4836	1.45164	0
1571	93.6228	93.4836	1.45163	0
1572	93.6231	93.4836	1.45163	0
1573	93.6234	93.4836	1.45163	0
1574	93.6236	93.4836	1.45163	0
1575	93.6239	93.4836	1.45163	0
1576	93.6242	93.4836	1.45163	0
1577	93.6244	93.4836	1.45162	0
1578	93.6247	93.4836	1.45162	0
1579	93.625	93.4836	1.45162	0
1580	93.6253	93.4836	1.45162	0
1581	93.6256	93.4836	1.45162	0
1582	93.6258	93.4835	1.45162	0
1583	93.6261	93.4835	1.45161	0
1584	93.6264	93.4835	1.45161	0
1585	93.6266	93.4835	1.45161	0
1586	93.6269	93.4835	1.45161	0
1587	93.6272	93.4835	1.45161	0
1588	93.6275	93.4835	1.45161	0
1589	93.6278	93.4835	1.4516	0
1590	93.628	93.4835	1.4516	0
1591	93.6283	93.4835	1.4516	0
1592	93.6286	93.4834	1.4516	0
1593	93.6289	93.4834	1.4516	0
1594	93.6291	93.4834	1.4516	0
1595	93.6294	93.4834	1.45159	0
1596	93.6297	93.4834	1.45159	0
1597	93.63	93.4834	1.45159	0
1598	93.6302	93.4834	1.45159	0
1599	93.6305	93.4834	1.45159	0
1600	93.6308	93.4834	1.45159	0
1601	93.6311	93.4833	1.45159	0
1602	93.6313	93.4833	1.45158	0
1603	93.6316	93.4833	1.45158	0
1604	93.6319	93.4833	1.45158	0
1605	93.6322	93.4833	1.45158	0
1606	93.6325	93.4833	1.45158	0
1607	93.6327	93.4833	1.45158	0
1608	93.633	93.4832	1.45157	0
1609	93.6333	93.4832	1.45157	0
1610	93.6336	93.4832	1.45157	0
1611	93.6338	93.4832	1.45157	0
1612	93.6341	93.4832	1.45157	0
1613	93.6344	93.4832	1.45157	0
1614	93.6347	93.4831	1.45156	0
1615	93.635	93.4831	1.45156	0
1616	93.6352	93.4831	1.45156	0
1617	93.6355	93.4831	1.45156	0
1618	93.6358	93.4831	1.45156	0
1619	93.6361	93.4831	1.45156	0
1620	93.6363	93.483	1.45155	0
1621	93.6366	93.483	1.45155	0
1622	93.6369	93.483	1.45155	0
1623	93.6372	93.483	1.45155	0
1624	93.6375	93.483	1.45155	0
1625	93.6377	93.4829	1.45155	0
1626	93.638	93.4829	1.45155	0
1627	93.6383	93.4829	1.45154	0
1628	93.6386	93.4829	1.45154	0
1629	93.6389	93.4829	1.45154	0
1630	93.6392	93.4828	1.45154	0
1631	93.6394	93.4828	1.45154	0
1632	93.6397	93.4828	1.45154	0
1633	93.64	93.4828	1.45153	0
1634	93.6403	93.4828	1.45153	0
1635	93.6406	93.4827	1.45153	0
1636	93.6408	93.4827	1.45153	0
1637	93.6411	93.4827	1.45153	0
1638	93.6414	93.4827	1.45153	0
1639	93.6417	93.4826	1.45153	0
1640	93.642	93.4826	1.45152	0
1641	93.6422	93.4826	1.45152	0
1642	93.6425	93.4826	1.45152	0
1643	93.6428	93.4825	1.45152	0
1644	93.6431	93.4825	1.45152	0
1645	93.6434	93.4825	1.45152	0
1646	93.6436	93.4825	1.45152	0
1647	93.6439	93.4825	1.45151	0
1648	93.6442	93.4824	1.45151	0
1649	93.6445	93.4824	1.45151	0
1650	93.6448	93.4824	1.45151	0
1651	93.6451	93.4824	1.45151	0
1652	93.6453	93.4823	1.45151	0
1653	93.6456	93.4823	1.4515	0
1654	93.6459	93.4823	1.4515	0
1655	93.6462	93.4823	1.4515	0
1656	93.6465	93.4822	1.4515	0
1657	93.6468	93.4822	1.4515	0
1658	93.647	93.4822	1.4515	0
1659	93.6473	93.4821	1.4515	0
1660	93.6476	93.4821	1.45149	0
1661	93.6479	93.4821	1.45149	0
1662	93.6482	93.4821	1.45149	0
1663	93.6485	93.482	1.45149	0
1664	93.6488	93.482	1.45149	0
1665	93.649	93.482	1.45149	0
1666	93.6493	93.482	1.45149	0
1667	93.6496	93.4819	1.45148	0
1668	93.6499	93.4819	1.45148	0
1669	93.6502	93.4819	1.45148	0
1670	93.6505	93.4818	1.45148	0
1671	93.6507	93.4818	1.45148	0
1672	93.651	93.4818	1.45148	0
1673	93.6513	93.4818	1.45148	0
1674	93.6516	93.4817	1.45147	0
1675	93.6519	93.4817	1.45147	0
1676	93.6522	93.4817	1.45147	0
1677	93.6525	93.4816	1.45147	0
1678	93.6527	93.4816	1.45147	0
1679	93.653	93.4816	1.45147	0
1680	93.6533	93.4815	1.45147	0
1681	93.6536	93.4815	1.45146	0
1682	93.6539	93.4815	1.45146	0
1683	93.6542	93.4815	1.45146	0
1684	93.6544	93.4814	1.45146	0
1685	93.6547	93.4814	1.45146	0
1686	93.655	93.4814	1.45146	0
1687	93.6553	93.4813	1.45146	0
1688	93.6556	93.4813	1.45146	0
1689	93.6559	93.4813	1.45145	0
1690	93.6562	93.4812	1.45145	0
1691	93.6565	93.4812	1.45145	0
1692	93.6568	93.4812	1.45145	0
1693	93.657	93.4811	1.45145	0
1694	93.6573	93.4811	1.45145	0
1695	93.6576	93.4811	1.45145	0
1696	93.6579	93.481	1.45144	0
1697	93.6582	93.481	1.45144	0
1698	93.6585	93.481	1.45144	0
1699	93.6588	93.4809	1.45144	0
1700	93.659	93.4809	1.45144	0
1701	93.6593	93.4809	1.45144	0
1702	93.6596	93.4808	1.45144	0
1703	93.6599	93.4808	1.45143	0
1704	93.6602	93.4808	1.45143	0
1705	93.6605	93.4807	1.45143	0
1706	93.6608	93.4807	1.45143	0
1707	93.6611	93.4807	1.45143	0
1708	93.6614	93.4806	1.45143	0
1709	93.6616	93.4806	1.45143	0
1710	93.6619	93.4806	1.45143	0
1711	93.6622	93.4805	1.45142	0
1712	93.6625	93.4805	1.45142	0
1713	93.6628	93.4805	1.45142	0
1714	93.6631	93.4804	1.45142	0
1715	93.6634	93.4804	1.45142	0
1716	93.6637	93.4804	1.45142	0
1717	93.664	93.4803	1.45142	0
1718	93.6643	93.4803	1.45141	0
1719	93.6646	93.4803	1.45141	0
1720	93.6648	93.4802	1.45141	0
1721	93.6651	93.4802	1.45141	0
1722	93.6654	93.4801	1.45141	0
1723	93.6657	93.4801	1.45141	0
1724	93.666	93.4801	1.45141	0
1725	93.6663	93.48	1.45141	0
1726	93.6666	93.48	1.4514	0
1727	93.6669	93.48	1.4514	0
1728	93.6672	93.4799	1.4514	0
1729	93.6675	93.4799	1.4514	0
1730	93.6678	93.4799	1.4514	0
1731	93.668	93.4798	1.4514	0
1732	93.6683	93.4798	1.4514	0
1733	93.6686	93.4797	1.4514	0
1734	93.6689	93.4797	1.45139	0
1735	93.6692	93.4797	1.45139	0
1736	93.6695	93.4796	1.45139	0
1737	93.6698	93.4796	1.45139	0
1738	93.6701	93.4796	1.45139	0
1739	93.6704	93.4795	1.45139	0
1740	93.6707	93.4795	1.45139	0
1741	93.671	93.4794	1.45139	0
1742	93.6713	93.4794	1.45138	0
1743	93.6716	93.4794	1.45138	0
1744	93.6719	93.4793	1.45138	0
1745	93.6722	93.4793	1.45138	0
1746	93.6724	93.4793	1.45138	0
1747	93.6727	93.4792	1.45138	0
1748	93.673	93.4792	1.45138	0
1749	93.6733	93.4791	1.45138	0
1750	93.6736	93.4791	1.45137	0
1751	93.6739	93.4791	1.45137	0
1752	93.6742	93.479	1.45137	0
1753	93.6745	93.479	1.45137	0
1754	93.6748	93.4789	1.45137	0
1755	93.6751	93.4789	1.45137	0
1756	93.6754	93.4789	1.45137	0
1757	93.6757	93.4788	1.45137	0
1758	93.676	93.4788	1.45136	0
1759	93.6763	93.4787	1.45136	0
1760	93.6766	93.4787	1.45136	0
1761	93.6769	93.4787	1.45136	0
1762	93.6772	93.4786	1.45136	0
1763	93.6775	93.4786	1.45136	0
1764	93.6778	93.4786	1.45136	0
1765	93.6781	93.4785	1.45136	0
1766	93.6784	93.4785	1.45135	0
1767	93.6787	93.4784	1.45135	0
1768	93.679	93.4784	1.45135	0
1769	93.6792	93.4784	1.45135	0
1770	93.6796	93.4783	1.45135	0
1771	93.6798	93.4783	1.45135	0
1772	93.6801	93.4782	1.45135	0
1773	93.6804	93.4782	1.45135	0
1774	93.6807	93.4782	1.45135	0
1775	93.681	93.4781	1.45134	0
1776	93.6813	93.4781	1.45134	0
1777	93.6816	93.478	1.45134	0
1778	93.6819	93.478	1.45134	0
1779	93.6822	93.4779	1.45134	0
1780	93.6825	93.4779	1.45134	0
1781	93.6828	93.4779	1.45134	0
1782	93.6831	93.4778	1.45134	0
1783	93.6834	93.4778	1.45133	0
1784	93.6837	93.4777	1.45133	0
1785	93.684	93.4777	1.45133	0
1786	93.6843	93.4777	1.45133	0
1787	93.6846	93.4776	1.45133	0
1788	93.6849	93.4776	1.45133	0
1789	93.6852	93.4775	1.45133	0
1790	93.6855	93.4775	1.45133	0
1791	93.6858	93.4775	1.45133	0
1792	93.6861	93.4774	1.45132	0
1793	93.6864	93.4774	1.45132	0
1794	93.6867	93.4773	1.45132	0
1795	93.687	93.4773	1.45132	0
1796	93.6873	93.4773	1.45132	0
1797	93.6876	93.4772	1.45132	0
1798	93.6879	93.4772	1.45132	0
1799	93.6882	93.4771	1.45132	0
1800	93.6885	93.4771	1.45131	0
1801	93.6888	93.477	1.45131	0
1802	93.6891	93.477	1.45131	0
1803	93.6894	93.477	1.45131	0
1804	93.6897	93.4769	1.45131	0
1805	93.69	93.4769	1.45131	0
1806	93.6903	93.4768	1.45131	0
1807	93.6906	93.4768	1.45131	0
1808	93.6909	93.4768	1.45131	0
1809	93.6912	93.4767	1.4513	0
1810	93.6915	93.4767	1.4513	0
1811	93.6919	93.4766	1.4513	0
1812	93.6921	93.4766	1.4513	0
1813	93.6924	93.4765	1.4513	0
1814	93.6928	93.4765	1.4513	0
1815	93.6931	93.4765	1.4513	0
1816	93.6934	93.4764	1.4513	0
1817	93.6937	93.4764	1.4513	0
1818	93.694	93.4763	1.45129	0
1819	93.6943	93.4763	1.45129	0
1820	93.6946	93.4763	1.45129	0
1821	93.6949	93.4762	1.45129	0
1822	93.6952	93.4762	1.45129	0
1823	93.6955	93.4761	1.45129	0
1824	93.6958	93.4761	1.45129	0
1825	93.6961	93.476	1.45129	0
1826	93.6964	93.476	1.45129	0
1827	93.6967	93.476	1.45128	0
1828	93.697	93.4759	1.45128	0
1829	93.6973	93.4759	1.45128	0
1830	93.6976	93.4758	1.45128	0
1831	93.6979	93.4758	1.45128	0
1832	93.6982	93.4757	1.45128	0
1833	93.6985	93.4757	1.45128	0
1834	93.6988	93.4757	1.45128	0
1835	93.6992	93.4756	1.45128	0
1836	93.6995	93.4756	1.45128	0
1837	93.6998	93.4755	1.45127	0
1838	93.7001	93.4755	1.45127	0
1839	93.7004	93.4754	1.45127	0
1840	93.7007	93.4754	1.45127	0
1841	93.701	93.4754	1.45127	0
1842	93.7013	93.4753	1.45127	0
1843	93.7016	93.4753	1.45127	0
1844	93.7019	93.4752	1.45127	0
1845	93.7022	93.4752	1.45127	0
1846	93.7025	93.4751	1.45126	0
1847	93.7028	93.4751	1.45126	0
1848	93.7031	93.4751	1.45126	0
1849	93.7035	93.475	1.45126	0
1850	93.7038	93.475	1.45126	0
1851	93.7041	93.4749	1.45126	0
1852	93.7044	93.4749	1.45126	0
1853	93.7047	93.4749	1.45126	0
1854	93.705	93.4748	1.45126	0
1855	93.7053	93.4748	1.45126	0
1856	93.7056	93.4747	1.45125	0
1857	93.7059	93.4747	1.45125	0
1858	93.7062	93.4746	1.45125	0
1859	93.7065	93.4746	1.45125	0
1860	93.7069	93.4746	1.45125	0
1861	93.7072	93.4745	1.45125	0
1862	93.7075	93.4745	1.45125	0
1863	93.7078	93.4744	1.45125	0
1864	93.7081	93.4744	1.45125	0
1865	93.7084	93.4743	1.45124	0
1866	93.7087	93.4743	1.45124	0
1867	93.709	93.4743	1.45124	0
1868	93.7093	93.4742	1.45124	0
1869	93.7096	93.4742	1.45124	0
1870	93.71	93.4741	1.45124	0
1871	93.7103	93.4741	1.45124	0
1872	93.7106	93.474	1.45124	0
1873	93.7109	93.474	1.45124	0
1874	93.7112	93.474	1.45124	0
1875	93.7115	93.4739	1.45123	0
1876	93.7118	93.4739	1.45123	0
1877	93.7121	93.4738	1.45123	0
1878	93.7125	93.4738	1.45123	0
1879	93.7128	93.4737	1.45123	0
1880	93.7131	93.4737	1.45123	0
1881	93.7134	93.4737	1.45123	0
1882	93.7137	93.4736	1.45123	0
1883	93.714	93.4736	1.45123	0
1884	93.7143	93.4735	1.45123	0
1885	93.7146	93.4735	1.45122	0
1886	93.715	93.4734	1.45122	0
1887	93.7153	93.4734	1.45122	0
1888	93.7156	93.4734	1.45122	0
1889	93.7159	93.4733	1.45122	0
1890	93.7162	93.4733	1.45122	0
1891	93.7165	93.4732	1.45122	0
1892	93.7168	93.4732	1.45122	0
1893	93.7172	93.4732	1.45122	0
1894	93.7175	93.4731	1.45122	0
1895	93.7178	93.4731	1.45122	0
1896	93.7181	93.473	1.45121	0
1897	93.7184	93.473	1.45121	0
1898	93.7187	93.4729	1.45121	0
1899	93.719	93.4729	1.45121	0
1900	93.7194	93.4729	1.45121	0
1901	93.7197	93.4728	1.45121	0
1902	93.72	93.4728	1.45121	0
1903	93.7203	93.4727	1.45121	0
1904	93.7206	93.4727	1.45121	0
1905	93.7209	93.4726	1.45121	0
1906	93.7212	93.4726	1.4512	0
1907	93.7216	93.4726	1.4512	0
1908	93.7219	93.4725	1.4512	0
1909	93.7222	93.4725	1.4512	0
1910	93.7225	93.4724	1.4512	0
1911	93.7228	93.4724	1.4512	0
1912	93.7232	93.4724	1.4512	0
1913	93.7235	93.4723	1.4512	0
1914	93.7238	93.4723	1.4512	0
1915	93.7241	93.4722	1.4512	0
1916	93.7244	93.4722	1.45119	0
1917	93.7247	93.4721	1.45119	0
1918	93.725	93.4721	1.45119	0
1919	93.7254	93.4721	1.45119	0
1920	93.7257	93.472	1.45119	0
1921	93.726	93.472	1.45119	0
1922	93.7263	93.4719	1.45119	0
1923	93.7267	93.4719	1.45119	0
1924	93.727	93.4719	1.45119	0
1925	93.7273	93.4718	1.45119	0
1926	93.7276	93.4718	1.45119	0
1927	93.7279	93.4717	1.45118	0
1928	93.7282	93.4717	1.45118	0
1929	93.7286	93.4716	1.45118	0
1930	93.7289	93.4716	1.45118	0
1931	93.7292	93.4716	1.45118	0
1932	93.7295	93.4715	1.45118	0
1933	93.7298	93.4715	1.45118	0
1934	93.7302	93.4714	1.45118	0
1935	93.7305	93.4714	1.45118	0
1936	93.7308	93.4714	1.45118	0
1937	93.7311	93.4713	1.45118	0
1938	93.7314	93.4713	1.45117	0
1939	93.7318	93.4712	1.45117	0
1940	93.7321	93.4712	1.45117	0
1941	93.7324	93.4711	1.45117	0
1942	93.7327	93.4711	1.45117	0
1943	93.7331	93.4711	1.45117	0
1944	93.7334	93.471	1.45117	0
1945	93.7337	93.471	1.45117	0
1946	93.734	93.4709	1.45117	0
1947	93.7343	93.4709	1.45117	0
1948	93.7347	93.4709	1.45117	0
1949	93.735	93.4708	1.45116	0
1950	93.7353	93.4708	1.45116	0
1951	93.7356	93.4707	1.45116	0
1952	93.736	93.4707	1.45116	0
1953	93.7363	93.4707	1.45116	0
1954	93.7366	93.4706	1.45116	0
1955	93.7369	93.4706	1.45116	0
1956	93.7373	93.4705	1.45116	0
1957	93.7376	93.4705	1.45116	0
1958	93.7379	93.4705	1.45116	0
1959	93.7382	93.4704	1.45116	0
1960	93.7386	93.4704	1.45115	0
1961	93.7389	93.4703	1.45115	0
1962	93.7392	93.4703	1.45115	0
1963	93.7395	93.4703	1.45115	0
1964	93.7399	93.4702	1.45115	0
1965	93.7402	93.4702	1.45115	0
1966	93.7405	93.4701	1.45115	0
1967	93.7408	93.4701	1.45115	0
1968	93.7412	93.4701	1.45115	0
1969	93.7415	93.47	1.45115	0
1970	93.7418	93.47	1.45115	0
1971	93.7421	93.4699	1.45115	0
1972	93.7425	93.4699	1.45114	0
1973	93.7428	93.4699	1.45114	0
1974	93.7431	93.4698	1.45114	0
1975	93.7434	93.4698	1.45114	0
1976	93.7438	93.4697	1.45114	0
1977	93.7441	93.4697	1.45114	0
1978	93.7444	93.4697	1.45114	0
1979	93.7447	93.4696	1.45114	0
1980	93.7451	93.4696	1.45114	0
1981	93.7454	93.4695	1.45114	0
1982	93.7457	93.4695	1.45114	0
1983	93.746	93.4695	1.45114	0
1984	93.7464	93.4694	1.45113	0
1985	93.7467	93.4694	1.45113	0
1986	93.747	93.4693	1.45113	0
1987	93.7474	93.4693	1.45113	0
1988	93.7477	93.4693	1.45113	0
1989	93.748	93.4692	1.45113	0
1990	93.7484	93.4692	1.45113	0
1991	93.7487	93.4691	1.45113	0
1992	93.749	93.4691	1.45113	0
1993	93.7493	93.4691	1.45113	0
1994	93.7497	93.469	1.45113	0
1995	93.75	93.469	1.45112	0
1996	93.7503	93.4689	1.45112	0
1997	93.7507	93.4689	1.45112	0
1998	93.751	93.4689	1.45112	0
1999	93.7513	93.4688	1.45112	0
2000	93.7516	93.4688	1.45112	0
2001	93.752	93.4688	1.45112	0
2002	93.7523	93.4687	1.45112	0
2003	93.7526	93.4687	1.45112	0
2004	93.753	93.4686	1.45112	0
2005	93.7533	93.4686	1.45112	0
2006	93.7536	93.4686	1.45112	0
2007	93.754	93.4685	1.45112	0
2008	93.7543	93.4685	1.45111	0
2009	93.7546	93.4684	1.45111	0
2010	93.755	93.4684	1.45111	0
2011	93.7553	93.4684	1.45111	0
2012	93.7556	93.4683	1.45111	0
2013	93.756	93.4683	1.45111	0
2014	93.7563	93.4683	1.45111	0
2015	93.7566	93.4682	1.45111	0
2016	93.757	93.4682	1.45111	0
2017	93.7573	93.4681	1.45111	0
2018	93.7576	93.4681	1.45111	0
2019	93.758	93.4681	1.45111	0
2020	93.7583	93.468	1.4511	0
2021	93.7586	93.468	1.4511	0
2022	93.759	93.468	1.4511	0
2023	93.7593	93.4679	1.4511	0
2024	93.7596	93.4679	1.4511	0
2025	93.76	93.4678	1.4511	0
2026	93.7603	93.4678	1.4511	0
2027	93.7711	93.4678	1.4511	0
2028	93.7434	93.4677	1.4511	0
2029	93.7162	93.4677	1.4511	0
2030	93.7038	93.4677	1.4511	0
2031	93.6807	93.4676	1.4511	0
2032	93.6526	93.4676	1.45109	0
2033	93.6206	93.4676	1.45109	0
2034	93.5951	93.4675	1.45109	0
2035	93.573	93.4675	1.45109	0
2036	93.5451	93.4674	1.45109	0
2037	93.5106	93.4674	1.45109	0
2038	93.4901	93.4674	1.45109	0
2039	93.4889	93.4673	1.45109	0
2040	93.4779	93.4673	1.45109	0
2041	93.4681	93.4673	1.45109	0
2042	93.4346	93.4672	1.45109	0
2043	93.4107	93.4672	1.45109	0
2044	93.3807	93.4671	1.45109	0
2045	93.3352	93.4671	1.45108	0
2046	93.3113	93.4671	1.45108	0
2047	93.2977	93.467	1.45108	0
2048	93.2733	93.467	1.45108	0
2049	93.2509	93.467	1.45108	0
2050	93.249	93.4669	1.45108	0
2051	93.2274	93.4669	1.45108	0
2052	93.2008	93.4669	1.45108	0
2053	93.194	93.4668	1.45108	0
2054	93.1811	93.4668	1.45108	0
2055	93.1752	93.4668	1.45108	0
2056	93.1632	93.4667	1.45108	0
2057	93.1798	93.4667	1.45108	0
2058	93.1696	93.4666	1.45107	0
2059	93.1428	93.4666	1.45107	0
2060	93.1181	93.4666	1.45107	0
2061	93.1133	93.4665	1.45107	0
2062	93.0851	93.4665	1.45107	0
2063	93.0807	93.4665	1.45107	0
2064	93.1053	93.4664	1.45107	0
2065	93.1132	93.4664	1.45107	0
2066	93.0987	93.4664	1.45107	0
2067	93.1001	93.4663	1.45107	0
2068	93.109	93.4663	1.45107	0
2069	93.129	93.4663	1.45107	0
2070	93.1106	93.4662	1.45107	0
2071	93.1072	93.4662	1.45107	0
2072	93.1125	93.4662	1.45106	0
2073	93.1144	93.4661	1.45106	0
2074	93.1192	93.4661	1.45106	0
2075	93.1305	93.4661	1.45106	0
2076	93.141	93.466	1.45106	0
2077	93.1431	93.466	1.45106	0
2078	93.1292	93.466	1.45106	0
2079	93.1366	93.4659	1.45106	0
2080	93.1444	93.4659	1.45106	0
2081	93.1657	93.4659	1.45106	0
2082	93.1641	93.4658	1.45106	0
2083	93.1642	93.4658	1.45106	0
2084	93.1695	93.4657	1.45106	0
2085	93.1607	93.4657	1.45105	0
2086	93.1663	93.4657	1.45105	0
2087	93.1578	93.4656	1.45105	0
2088	93.1514	93.4656	1.45105	0
2089	93.1475	93.4656	1.45105	0
2090	93.1326	93.4655	1.45105	0
2091	93.1236	93.4655	1.45105	0
2092	93.109	93.4655	1.45105	0
2093	93.1028	93.4654	1.45105	0
2094	93.0894	93.4654	1.45105	0
2095	93.0818	93.4654	1.45105	0
2096	93.0824	93.4653	1.45105	0
2097	93.0496	93.4653	1.45105	0
2098	93.0339	93.4653	1.45105	0
2099	93.0354	93.4652	1.45104	0
2100	93.0255	93.4652	1.45104	0
2101	93.0392	93.4652	1.45104	0
2102	93.0073	93.4652	1.45104	0
2103	92.9735	93.4651	1.45104	0
2104	92.9679	93.4651	1.45104	0
2105	92.948	93.4651	1.45104	0
2106	92.9381	93.465	1.45104	0
2107	92.9236	93.465	1.45104	0
2108	92.9038	93.465	1.45104	0
2109	92.8921	93.4649	1.45104	0
2110	92.8693	93.4649	1.45104	0
2111	92.8387	93.4649	1.45104	0
2112	92.8154	93.4648	1.45104	0
2113	92.7975	93.4648	1.45103	0
2114	92.7803	93.4648	1.45103	0
2115	92.7562	93.4647	1.45103	0
2116	92.7409	93.4647	1.45103	0
2117	92.7195	93.4647	1.45103	0
2118	92.6889	93.4646	1.45103	0
2119	92.6733	93.4646	1.45103	0
2120	92.6557	93.4646	1.45103	0
2121	92.6177	93.4645	1.45103	0
2122	92.5834	93.4645	1.45103	0
2123	92.5542	93.4645	1.45103	0
2124	92.5034	93.4644	1.45103	0
2125	92.4911	93.4644	1.45103	0
2126	92.4404	93.4644	1.45103	0
2127	92.4053	93.4644	1.45102	0
2128	92.3692	93.4643	1.45102	0
2129	92.3284	93.4643	1.45102	0
2130	92.2908	93.4643	1.45102	0
2131	92.2175	93.4642	1.45102	0
2132	92.1644	93.4642	1.45102	0
2133	92.1217	93.4642	1.45102	0
2134	92.0749	93.4641	1.45102	0
2135	91.9997	93.4641	1.45102	0
2136	91.9212	93.4641	1.45102	0
2137	91.8724	93.464	1.45102	0
2138	91.7712	93.464	1.45102	0
2139	91.6904	93.464	1.45102	0
2140	91.5908	93.464	1.45102	0
2141	91.4897	93.4639	1.45102	0
2142	91.3942	93.4639	1.45101	0
2143	91.2934	93.4639	1.45101	0
2144	91.2193	93.4638	1.45101	0
2145	91.0689	93.4638	1.45101	0
2146	90.9439	93.4638	1.45101	0
2147	90.8214	93.4637	1.45101	0
2148	90.6847	93.4637	1.45101	0
2149	90.5802	93.4637	1.45101	0
2150	90.462	93.4637	1.45101	0
2151	90.3103	93.4636	1.45101	0
2152	90.2	93.4636	1.45101	0
2153	90.0717	93.4636	1.45101	0
2154	89.953	93.4635	1.45101	0
2155	89.8311	93.4635	1.45101	0
2156	89.72	93.4635	1.45101	0
2157	89.6048	93.4635	1.451	0
2158	89.4877	93.4634	1.451	0
2159	89.3684	93.4634	1.451	0
2160	89.2656	93.4634	1.451	0
2161	89.1357	93.4633	1.451	0
2162	89.006	93.4633	1.451	0
2163	88.8926	93.4633	1.451	0
2164	88.7616	93.4632	1.451	0
2165	88.6289	93.4632	1.451	0
2166	88.5036	93.4632	1.451	0
2167	88.3469	93.4632	1.451	0
2168	88.1885	93.4631	1.451	0
2169	88.0363	93.4631	1.451	0
2170	87.9033	93.4631	1.451	0
2171	87.7301	93.4631	1.451	0
2172	87.5214	93.463	1.45099	0
2173	87.3288	93.463	1.45099	0
2174	87.112	93.463	1.45099	0
2175	86.8792	93.4629	1.45099	0
2176	86.6224	93.4629	1.45099	0
2177	86.3497	93.4629	1.45099	0
2178	86.081	93.4629	1.45099	0
2179	85.7496	93.4628	1.45099	0
2180	85.4525	93.4628	1.45099	0
2181	85.04	93.4628	1.45099	0
2182	84.6244	93.4627	1.45099	0
2183	84.1365	93.4627	1.45099	0
2184	83.6723	93.4627	1.45099	0
2185	83.1079	93.4627	1.45099	0
2186	82.424	93.4626	1.45099	0
2187	81.7238	93.4626	1.45099	0
2188	80.9129	93.4626	1.45098	0
2189	80.0436	93.4626	1.45098	0
2190	79.1418	93.4625	1.45098	0
2191	78.0463	93.4625	1.45098	0
2192	76.9041	93.4625	1.45098	0
2193	75.7358	93.4624	1.45098	0
2194	74.4675	93.4624	1.45098	0
2195	73.1301	93.4624	1.45098	0
2196	71.6755	93.4624	1.45098	0
2197	70.1969	93.4623	1.45098	0
2198	68.8599	93.4623	1.45098	0
2199	67.4395	93.4623	1.45098	0
2200	65.9685	93.4623	1.45098	0
2201	64.6811	93.4622	1.45098	0
2202	63.5166	93.4622	1.45098	0
2203	62.3816	93.4622	1.45098	0
2204	61.3936	93.4622	1.45097	0
2205	60.5845	93.4621	1.45097	0
2206	59.8991	93.4621	1.45097	0
2207	59.3872	93.4621	1.45097	0
2208	58.9387	93.4621	1.45097	0
2209	58.66	93.462	1.45097	0
2210	58.5129	93.462	1.45097	0
2211	58.4797	93.462	1.45097	0
2212	58.5317	93.462	1.45097	0
2213	58.6799	93.4619	1.45097	0
2214	58.9166	93.4619	1.45097	0
2215	59.2205	93.4619	1.45097	0
2216	59.5571	93.4618	1.45097	0
2217	59.9744	93.4618	1.45097	0
2218	60.3779	93.4618	1.45097	0
2219	60.7908	93.4618	1.45097	0
2220	61.2192	93.4617	1.45096	0
2221	61.6607	93.4617	1.45096	0
2222	62.1134	93.4617	1.45096	0
2223	62.5688	93.4617	1.45096	0
2224	62.9923	93.4617	1.45096	0
2225	63.4108	93.4616	1.45096	0
2226	63.8176	93.4616	1.45096	0
2227	64.1528	93.4616	1.45096	0
2228	64.4804	93.4616	1.45096	0
2229	64.7828	93.4615	1.45096	0
2230	65.0375	93.4615	1.45096	0
2231	65.2818	93.4615	1.45096	0
2232	65.4635	93.4615	1.45096	0
2233	65.6236	93.4614	1.45096	0
2234	65.81	93.4614	1.45096	0
2235	65.9562	93.4614	1.45096	0
2236	66.0943	93.4614	1.45096	0
2237	66.2047	93.4613	1.45095	0
2238	66.3294	93.4613	1.45095	0
2239	66.4204	93.4613	1.45095	0
2240	66.5055	93.4613	1.45095	0
2241	66.6064	93.4612	1.45095	0
2242	66.7095	93.4612	1.45095	0
2243	66.8314	93.4612	1.45095	0
2244	66.9448	93.4612	1.45095	0
2245	67.0916	93.4611	1.45095	0
2246	67.2488	93.4611	1.45095	0
2247	67.4247	93.4611	1.45095	0
2248	67.596	93.4611	1.45095	0
2249	67.7877	93.4611	1.45095	0
2250	67.9753	93.461	1.45095	0
2251	68.222	93.461	1.45095	0
2252	68.4746	93.461	1.45095	0
2253	68.7319	93.461	1.45095	0
2254	69.0094	93.4609	1.45094	0
2255	69.308	93.4609	1.45094	0
2256	69.606	93.4609	1.45094	0
2257	69.91	93.4609	1.45094	0
2258	70.233	93.4608	1.45094	0
2259	70.5755	93.4608	1.45094	0
2260	70.9184	93.4608	1.45094	0
2261	71.2789	93.4608	1.45094	0
2262	71.6348	93.4608	1.45094	0
2263	72.0121	93.4607	1.45094	0
2264	72.386	93.4607	1.45094	0
2265	72.7877	93.4607	1.45094	0
2266	73.1769	93.4607	1.45094	0
2267	73.5687	93.4607	1.45094	0
2268	73.9608	93.4606	1.45094	0
2269	74.3524	93.4606	1.45094	0
2270	74.7305	93.4606	1.45094	0
2271	75.1252	93.4606	1.45094	0
2272	75.4981	93.4605	1.45093	0
2273	75.8703	93.4605	1.45093	0
2274	76.2383	93.4605	1.45093	0
2275	76.595	93.4605	1.45093	0
2276	76.9547	93.4605	1.45093	0
2277	77.3203	93.4604	1.45093	0
2278	77.6846	93.4604	1.45093	0
2279	78.033	93.4604	1.45093	0
2280	78.379	93.4604	1.45093	0
2281	78.736	93.4604	1.45093	0
2282	79.0491	93.4603	1.45093	0
2283	79.3843	93.4603	1.45093	0
2284	79.701	93.4603	1.45093	0
2285	79.9671	93.4603	1.45093	0
2286	80.271	93.4602	1.45093	0
2287	80.574	93.4602	1.45093	0
2288	80.8621	93.4602	1.45093	0
2289	81.1501	93.4602	1.45093	0
2290	81.4279	93.4602	1.45092	0
2291	81.7076	93.4601	1.45092	0
2292	81.9732	93.4601	1.45092	0
2293	82.2395	93.4601	1.45092	0
2294	82.4655	93.4601	1.45092	0
2295	82.692	93.4601	1.45092	0
2296	82.9519	93.46	1.45092	0
2297	83.2029	93.46	1.45092	0
2298	83.4289	93.46	1.45092	0
2299	83.6526	93.46	1.45092	0
2300	83.8825	93.46	1.45092	0
2301	84.1118	93.4599	1.45092	0
2302	84.3123	93.4599	1.45092	0
2303	84.5231	93.4599	1.45092	0
2304	84.731	93.4599	1.45092	0
2305	84.9157	93.4599	1.45092	0
2306	85.1107	93.4598	1.45092	0
2307	85.3112	93.4598	1.45092	0
2308	85.5041	93.4598	1.45091	0
2309	85.6764	93.4598	1.45091	0
2310	85.849	93.4598	1.45091	0
2311	85.9996	93.4598	1.45091	0
2312	86.1273	93.4597	1.45091	0
2313	86.2801	93.4597	1.45091	0
2314	86.4279	93.4597	1.45091	0
2315	86.5723	93.4597	1.45091	0
2316	86.7122	93.4597	1.45091	0
2317	86.8708	93.4596	1.45091	0
2318	87.0089	93.4596	1.45091	0
2319	87.1249	93.4596	1.45091	0
2320	87.2178	93.4596	1.45091	0
2321	87.3467	93.4596	1.45091	0
2322	87.4743	93.4595	1.45091	0
2323	87.5685	93.4595	1.45091	0
2324	87.6622	93.4595	1.45091	0
2325	87.7691	93.4595	1.45091	0
2326	87.8756	93.4595	1.45091	0
2327	87.9496	93.4595	1.4509	0
2328	88.0287	93.4594	1.4509	0
2329	88.1174	93.4594	1.4509	0
2330	88.1818	93.4594	1.4509	0
2331	88.2567	93.4594	1.4509	0
2332	88.3204	93.4594	1.4509	0
2333	88.3735	93.4593	1.4509	0
2334	88.4712	93.4593	1.4509	0
2335	88.5636	93.4593	1.4509	0
2336	88.6017	93.4593	1.4509	0
2337	88.6654	93.4593	1.4509	0
2338	88.7039	93.4593	1.4509	0
2339	88.7519	93.4592	1.4509	0
2340	88.8212	93.4592	1.4509	0
2341	88.8766	93.4592	1.4509	0
2342	88.9396	93.4592	1.4509	0
2343	88.975	93.4592	1.4509	0
2344	89.0176	93.4592	1.4509	0
2345	89.067	93.4591	1.4509	0
2346	89.1403	93.4591	1.45089	0
2347	89.1672	93.4591	1.45089	0
2348	89.2069	93.4591	1.45089	0
2349	89.2446	93.4591	1.45089	0
2350	89.2599	93.4591	1.45089	0
2351	89.272	93.459	1.45089	0
2352	89.3012	93.459	1.45089	0
2353	89.3246	93.459	1.45089	0
2354	89.3358	93.459	1.45089	0
2355	89.3789	93.459	1.45089	0
2356	89.4139	93.459	1.45089	0
2357	89.4385	93.4589	1.45089	0
2358	89.4635	93.4589	1.45089	0
2359	89.4829	93.4589	1.45089	0
2360	89.4862	93.4589	1.45089	0
2361	89.4949	93.4589	1.45089	0
2362	89.5106	93.4589	1.45089	0
2363	89.5396	93.4588	1.45089	0
2364	89.5547	93.4588	1.45089	0
2365	89.5653	93.4588	1.45089	0
2366	89.5656	93.4588	1.45088	0
2367	89.5718	93.4588	1.45088	0
2368	89.5991	93.4588	1.45088	0
2369	89.6046	93.4588	1.45088	0
2370	89.5926	93.4587	1.45088	0
2371	89.5992	93.4587	1.45088	0
2372	89.597	93.4587	1.45088	0
2373	89.6203	93.4587	1.45088	0
2374	89.6316	93.4587	1.45088	0
2375	89.6167	93.4587	1.45088	0
2376	89.595	93.4586	1.45088	0
2377	89.5738	93.4586	1.45088	0
2378	89.5878	93.4586	1.45088	0
2379	89.6031	93.4586	1.45088	0
2380	89.592	93.4586	1.45088	0
2381	89.5594	93.4586	1.45088	0
2382	89.5387	93.4586	1.45088	0
2383	89.5263	93.4585	1.45088	0
2384	89.5078	93.4585	1.45088	0
2385	89.4845	93.4585	1.45088	0
2386	89.4644	93.4585	1.45087	0
2387	89.4313	93.4585	1.45087	0
2388	89.3905	93.4585	1.45087	0
2389	89.3593	93.4585	1.45087	0
2390	89.329	93.4584	1.45087	0
2391	89.3019	93.4584	1.45087	0
2392	89.2571	93.4584	1.45087	0
2393	89.1847	93.4584	1.45087	0
2394	89.1106	93.4584	1.45087	0
2395	89.0459	93.4584	1.45087	0
2396	88.9815	93.4584	1.45087	0
2397	88.9285	93.4583	1.45087	0
2398	88.8496	93.4583	1.45087	0
2399	88.7766	93.4583	1.45087	0
2400	88.7219	93.4583	1.45087	0
2401	88.6381	93.4583	1.45087	0
2402	88.5397	93.4583	1.45087	0
2403	88.4608	93.4583	1.45087	0
2404	88.3898	93.4582	1.45087	0
2405	88.3099	93.4582	1.45087	0
2406	88.2338	93.4582	1.45087	0
2407	88.1478	93.4582	1.45086	0
2408	88.0499	93.4582	1.45086	0
2409	87.9586	93.4582	1.45086	0
2410	87.8628	93.4582	1.45086	0
2411	87.7715	93.4582	1.45086	0
2412	87.6887	93.4581	1.45086	0
2413	87.6004	93.4581	1.45086	0
2414	87.5045	93.4581	1.45086	0
2415	87.3985	93.4581	1.45086	0
2416	87.3101	93.4581	1.45086	0
2417	87.2156	93.4581	1.45086	0
2418	87.1065	93.4581	1.45086	0
2419	87.0215	93.4581	1.45086	0
2420	86.936	93.458	1.45086	0
2421	86.8269	93.458	1.45086	0
2422	86.6942	93.458	1.45086	0
2423	86.5656	93.458	1.45086	0
2424	86.4729	93.458	1.45086	0
2425	86.3811	93.458	1.45086	0
2426	86.2647	93.458	1.45086	0
2427	86.1706	93.458	1.45086	0
2428	86.0732	93.4579	1.45085	0
2429	85.9465	93.4579	1.45085	0
2430	85.8264	93.4579	1.45085	0
2431	85.7191	93.4579	1.45085	0
2432	85.597	93.4579	1.45085	0
2433	85.4736	93.4579	1.45085	0
2434	85.3498	93.4579	1.45085	0
2435	85.2373	93.4579	1.45085	0
2436	85.1349	93.4578	1.45085	0
2437	85.0264	93.4578	1.45085	0
2438	84.9336	93.4578	1.45085	0
2439	84.8315	93.4578	1.45085	0
2440	84.6951	93.4578	1.45085	0
2441	84.5656	93.4578	1.45085	0
2442	84.4599	93.4578	1.45085	0
2443	84.361	93.4578	1.45085	0
2444	84.2638	93.4578	1.45085	0
2445	84.1634	93.4577	1.45085	0
2446	84.0358	93.4577	1.45085	0
2447	83.9321	93.4577	1.45085	0
2448	83.8343	93.4577	1.45085	0
2449	83.7157	93.4577	1.45085	0
2450	83.6124	93.4577	1.45084	0
2451	83.5229	93.4577	1.45084	0
2452	83.4321	93.4577	1.45084	0
2453	83.329	93.4577	1.45084	0
2454	83.2262	93.4576	1.45084	0
2455	83.1234	93.4576	1.45084	0
2456	82.996	93.4576	1.45084	0
2457	82.8824	93.4576	1.45084	0
2458	82.7772	93.4576	1.45084	0
2459	82.6812	93.4576	1.45084	0
2460	82.5863	93.4576	1.45084	0
2461	82.4869	93.4576	1.45084	0
2462	82.3848	93.4576	1.45084	0
2463	82.2722	93.4575	1.45084	0
2464	82.1456	93.4575	1.45084	0
2465	82.0262	93.4575	1.45084	0
2466	81.9322	93.4575	1.45084	0
2467	81.8185	93.4575	1.45084	0
2468	81.6716	93.4575	1.45084	0
2469	81.5379	93.4575	1.45084	0
2470	81.4193	93.4575	1.45084	0
2471	81.3022	93.4575	1.45084	0
2472	81.179	93.4575	1.45084	0
2473	81.0472	93.4575	1.45083	0
2474	80.9087	93.4574	1.45083	0
2475	80.7825	93.4574	1.45083	0
2476	80.6576	93.4574	1.45083	0
2477	80.5033	93.4574	1.45083	0
2478	80.3464	93.4574	1.45083	0
2479	80.2126	93.4574	1.45083	0
2480	80.0745	93.4574	1.45083	0
2481	79.9145	93.4574	1.45083	0
2482	79.7517	93.4574	1.45083	0
2483	79.6129	93.4574	1.45083	0
2484	79.4619	93.4573	1.45083	0
2485	79.2905	93.4573	1.45083	0
2486	79.1256	93.4573	1.45083	0
2487	78.9489	93.4573	1.45083	0
2488	78.7742	93.4573	1.45083	0
2489	78.5821	93.4573	1.45083	0
2490	78.4121	93.4573	1.45083	0
2491	78.2263	93.4573	1.45083	0
2492	78.0577	93.4573	1.45083	0
2493	77.8741	93.4573	1.45083	0
2494	77.6921	93.4573	1.45083	0
2495	77.4949	93.4573	1.45083	0
2496	77.2931	93.4572	1.45082	0
2497	77.1013	93.4572	1.45082	0
2498	76.9091	93.4572	1.45082	0
2499	76.7013	93.4572	1.45082	0
2500	76.4979	93.4572	1.45082	0
2501	76.2736	93.4572	1.45082	0
2502	76.0474	93.4572	1.45082	0
2503	75.8284	93.4572	1.45082	0
2504	75.6002	93.4572	1.45082	0
2505	75.3423	93.4572	1.45082	0
2506	75.0934	93.4572	1.45082	0
2507	74.8558	93.4572	1.45082	0
2508	74.6226	93.4571	1.45082	0
2509	74.3906	93.4571	1.45082	0
2510	74.1587	93.4571	1.45082	0
2511	73.872	93.4571	1.45082	0
2512	73.6146	93.4571	1.45082	0
2513	73.3556	93.4571	1.45082	0
2514	73.1259	93.4571	1.45082	0
2515	72.8582	93.4571	1.45082	0
2516	72.5641	93.4571	1.45082	0
2517	72.2922	93.4571	1.45082	0
2518	72.0278	93.4571	1.45082	0
2519	71.7479	93.4571	1.45082	0
2520	71.4831	93.4571	1.45081	0
2521	71.18	93.457	1.45081	0
2522	70.9121	93.457	1.45081	0
2523	70.6649	93.457	1.45081	0
2524	70.3816	93.457	1.45081	0
2525	70.1096	93.457	1.45081	0
2526	69.8352	93.457	1.45081	0
2527	69.5519	93.457	1.45081	0
2528	69.2659	93.457	1.45081	0
2529	69.0031	93.457	1.45081	0
2530	68.7137	93.457	1.45081	0
2531	68.429	93.457	1.45081	0
2532	68.1052	93.457	1.45081	0
2533	67.8127	93.457	1.45081	0
2534	67.4972	93.457	1.45081	0
2535	67.1884	93.4569	1.45081	0
2536	66.9019	93.4569	1.45081	0
2537	66.6235	93.4569	1.45081	0
2538	66.3452	93.4569	1.45081	0
2539	66.0688	93.4569	1.45081	0
2540	65.7919	93.4569	1.45081	0
2541	65.5111	93.4569	1.45081	0
2542	65.2256	93.4569	1.45081	0
2543	64.9102	93.4569	1.45081	0
2544	64.6152	93.4569	1.4508	0
2545	64.2995	93.4569	1.4508	0
2546	63.9925	93.4569	1.4508	0
2547	63.6663	93.4569	1.4508	0
2548	63.3578	93.4569	1.4508	0
2549	63.0421	93.4569	1.4508	0
2550	62.7342	93.4569	1.4508	0
2551	62.4592	93.4569	1.4508	0
2552	62.1871	93.4568	1.4508	0
2553	61.9427	93.4568	1.4508	0
2554	61.6908	93.4568	1.4508	0
2555	61.4358	93.4568	1.4508	0
2556	61.2071	93.4568	1.4508	0
2557	60.9269	93.4568	1.4508	0
2558	60.6803	93.4568	1.4508	0
2559	60.434	93.4568	1.4508	0
2560	60.1914	93.4568	1.4508	0
2561	59.9029	93.4568	1.4508	0
2562	59.6392	93.4568	1.4508	0
2563	59.3442	93.4568	1.4508	0
2564	59.0431	93.4568	1.4508	0
2565	58.7485	93.4568	1.4508	0
2566	58.4899	93.4568	1.4508	0
2567	58.2247	93.4568	1.4508	0
2568	57.9523	93.4568	1.4508	0
2569	57.7182	93.4568	1.4508	0
2570	57.4737	93.4567	1.45079	0
2571	57.2454	93.4567	1.45079	0
2572	57.0542	93.4567	1.45079	0
2573	56.8237	93.4567	1.45079	0
2574	56.6249	93.4567	1.45079	0
2575	56.3891	93.4567	1.45079	0
2576	56.1682	93.4567	1.45079	0
2577	55.9803	93.4567	1.45079	0
2578	55.7593	93.4567	1.45079	0
2579	55.5379	93.4567	1.45079	0
2580	55.3148	93.4567	1.45079	0
2581	55.0808	93.4567	1.45079	0
2582	54.837	93.4567	1.45079	0
2583	54.6663	93.4567	1.45079	0
2584	54.4706	93.4567	1.45079	0
2585	54.2553	93.4567	1.45079	0
2586	54.067	93.4567	1.45079	0
2587	53.8447	93.4567	1.45079	0
2588	53.6485	93.4567	1.45079	0
2589	53.4095	93.4567	1.45079	0
2590	53.1647	93.4567	1.45079	0
2591	52.9512	93.4567	1.45079	0
2592	52.7846	93.4567	1.45079	0
2593	52.5917	93.4566	1.45079	0
2594	52.4288	93.4566	1.45079	0
2595	52.2324	93.4566	1.45079	0
2596	52.0519	93.4566	1.45078	0
2597	51.8728	93.4566	1.45078	0
2598	51.7111	93.4566	1.45078	0
2599	51.4722	93.4566	1.45078	0
2600	51.3243	93.4566	1.45078	0
2600.68	49.5955	93.4566	1.45078	0
2601.78	49.8971	93.4566	1.45078	0
2602.89	49.4605	93.4566	1.45078	0
2603.72	49.3268	93.4566	1.45078	0
2604.82	48.8903	93.4566	1.45078	0
2605.93	48.5967	93.4566	1.45078	0
2606.75	49.0127	93.4566	1.45078	0
2607.86	48.5872	93.4566	1.45078	0
2608.69	48.149	93.4566	1.45078	0
2609.79	48.2686	93.4566	1.45078	0
2610.9	47.8096	93.4566	1.45078	0
2611.72	47.9347	93.4566	1.45078	0
2612.83	47.8656	93.4566	1.45078	0
2613.93	47.1299	93.4566	1.45078	0
2614.76	47.1818	93.4566	1.45078	0
2615.86	47.1589	93.4566	1.45078	0
2616.69	46.9892	93.4566	1.45078	0
2617.8	46.8836	93.4566	1.45078	0
2618.9	46.3885	93.4566	1.45078	0
2619.73	46.4558	93.4566	1.45078	0
2620.83	45.8846	93.4566	1.45078	0
2621.66	45.6719	93.4566	1.45078	0
2622.76	46.0158	93.4565	1.45077	0
2623.87	45.3897	93.4565	1.45077	0
2624.7	44.6997	93.4565	1.45077	0
2625.8	44.6592	93.4565	1.45077	0
2626.9	44.0558	93.4565	1.45077	0
2627.73	45.1689	93.4565	1.45077	0
2628.83	44.4912	93.4565	1.45077	0
2629.66	44.1442	93.4565	1.45077	0
2630.77	44.001	93.4565	1.45077	0
2631.87	43.9153	93.4565	1.45077	0
2632.7	42.9459	93.4565	1.45077	0
2633.8	42.5232	93.4565	1.45077	0
2634.9	42.1049	93.4565	1.45077	0
2635.73	41.6875	93.4565	1.45077	0
2636.83	41.5441	93.4565	1.45077	0
2637.66	41.6925	93.4565	1.45077	0
2638.76	41.3239	93.4565	1.45077	0
2639.87	40.8835	93.4565	1.45077	0
2640.69	40.864	93.4565	1.45077	0
2641.8	40.7534	93.4565	1.45077	0
2642.9	39.9472	93.4565	1.45077	0
2643.73	39.5205	93.4565	1.45077	0
2644.83	39.3172	93.4565	1.45077	0
2645.66	39.1468	93.4565	1.45077	0
2646.76	38.9566	93.4565	1.45077	0
2647.86	38.6502	93.4565	1.45077	0
2648.69	37.7103	93.4565	1.45077	0
2649.79	37.6065	93.4565	1.45077	0
2650.9	36.8174	93.4565	1.45076	0
2651.72	36.4611	93.4565	1.45076	0
2652.82	36.0625	93.4565	1.45076	0
2653.65	34.9746	93.4565	1.45076	0
2654.75	34.3029	93.4565	1.45076	0
2655.86	33.539	93.4565	1.45076	0
2656.68	32.9397	93.4565	1.45076	0
2657.78	32.6989	93.4565	1.45076	0
2658.89	31.5334	93.4565	1.45076	0
2659.71	31.0165	93.4565	1.45076	0
2660.82	30.634	93.4565	1.45076	0
2661.64	29.7028	93.4565	1.45076	0
2662.74	29.2818	93.4565	1.45076	0
2663.85	27.9285	93.4565	1.45076	0
2664.67	27.7815	93.4565	1.45076	0
2665.77	26.7499	93.4565	1.45076	0
2666.88	25.1175	93.4565	1.45076	0
2667.7	24.1338	93.4565	1.45076	0
2668.8	23.315	93.4565	1.45076	0
2669.91	21.6668	93.4565	1.45076	0
2670.73	21.314	93.4565	1.45076	0
2671.83	18.7446	93.4565	1.45076	0
2672.66	18.7377	93.4565	1.45076	0
2673.76	18.0975	93.4565	1.45076	0
2674.86	15.6145	93.4565	1.45076	0
2675.69	15.7086	93.4565	1.45076	0
2676.79	13.4261	93.4565	1.45076	0
2677.89	12.5867	93.4565	1.45076	0
2678.72	11.1736	93.4565	1.45075	0
2679.82	9.76815	93.4565	1.45075	0
2680.64	9.28323	93.4565	1.45075	0
2681.75	7.96251	93.4565	1.45075	0
2682.85	6.80864	93.4565	1.45075	0
2683.67	6.69316	93.4565	1.45075	0
2684.77	5.33134	93.4565	1.45075	0
2685.87	4.78021	93.4565	1.45075	0
2686.7	4.67942	93.4565	1.45075	0
2687.8	4.02818	93.4565	1.45075	0
2688.9	2.9161	93.4565	1.45075	0
2689.73	2.63504	93.4565	1.45075	0
2690.83	2.18244	93.4565	1.45075	0
2691.65	1.45584	93.4565	1.45075	0
2692.75	1.5895	93.4565	1.45075	0
2693.85	0.70224	93.4565	1.45075	0
2694.68	0.46909	93.4565	1.45075	0
2695.78	0.72616	93.4565	1.45075	0
2696.88	0.19452	93.4565	1.45075	0
2697.7	0.77044	93.4565	1.45075	0
2698.81	1.5714	93.4565	1.45075	0
2699.63	0.43284	93.4565	1.45075	0
2700.73	0.1915	93.4565	1.45075	0
2701.83	0.21486	93.4565	1.45075	0
2702.66	0.08164	93.4565	1.45075	0
2703.76	0.04057	93.4565	1.45075	0
2704.86	0.0657	93.4565	1.45075	0
2705.68	0.35392	93.4565	1.45075	0
2706.78	0.681	93.4565	1.45075	0
2707.88	0.88224	93.4565	1.45075	0
2708.71	0.48182	93.4565	1.45074	0
2709.8	0.28238	93.4565	1.45074	0
2710.63	0.09644	93.4565	1.45074	0
2711.73	0.29977	93.4565	1.45074	0
2712.83	0.10913	93.4565	1.45074	0
2713.65	0.05566	93.4565	1.45074	0
2714.75	0.59293	93.4565	1.45074	0
2715.85	0.5092	93.4565	1.45074	0
2716.68	0.0445	93.4565	1.45074	0
2717.78	0.33743	93.4565	1.45074	0
2718.88	0.06794	93.4565	1.45074	0
2719.7	0.27169	93.4565	1.45074	0
2720.8	0.50124	93.4565	1.45074	0
2721.62	0.33179	93.4565	1.45074	0
2722.72	0.66477	93.4565	1.45074	0
2723.82	0.16298	93.4565	1.45074	0
2724.65	0.00489	93.4565	1.45074	0
2725.75	0.33282	93.4565	1.45074	0
2726.84	0.24715	93.4565	1.45074	0
2727.67	0.05673	93.4565	1.45074	0
2728.77	0.1392	93.4565	1.45074	0
2729.87	0.53977	93.4565	1.45074	0
2730.69	0.80022	93.4565	1.45074	0
2731.79	0.48254	93.4565	1.45074	0
2732.89	0.25884	93.4565	1.45074	0
2733.71	0.303	93.4565	1.45074	0
2734.81	0.08692	93.4565	1.45074	0
2735.63	0.12329	93.4565	1.45074	0
2736.73	0.66865	93.4565	1.45074	0
2737.83	0.1744	93.4565	1.45074	0
2738.65	0.09821	93.4565	1.45074	0
2739.75	0.12872	93.4565	1.45073	0
2740.85	0.28022	93.4565	1.45073	0
2741.67	0.30103	93.4565	1.45073	0
2742.77	0.28454	93.4565	1.45073	0
2743.87	0.3426	93.4565	1.45073	0
2744.69	0.42406	93.4565	1.45073	0
2745.79	0.04992	93.4565	1.45073	0
2746.62	0.49615	93.4565	1.45073	0
2747.71	0.3043	93.4565	1.45073	0
2748.81	0.08458	93.4565	1.45073	0
2749.63	0.7617	93.4565	1.45073	0
2750.73	0.30956	93.4565	1.45073	0
2751.83	0.90171	93.4565	1.45073	0
2752.65	0.77681	93.4565	1.45073	0
2753.75	1.10973	93.4565	1.45073	0
2754.85	1.13717	93.4565	1.45073	0
2755.67	1.11929	93.4565	1.45073	0
2756.77	0.81118	93.4565	1.45073	0
2757.87	0.86622	93.4565	1.45073	0
2758.69	1.02441	93.4565	1.45073	0
2759.79	0.8981	93.4565	1.45073	0
2760.61	0.58949	93.4565	1.45073	0
2761.71	1.10376	93.4565	1.45073	0
2762.8	1.14543	93.4565	1.45073	0
2763.63	1.17528	93.4565	1.45073	0
2764.72	1.62993	93.4566	1.45073	0
2765.82	1.21555	93.4566	1.45073	0
2766.64	0.64064	93.4566	1.45073	0
2767.74	0.73373	93.4566	1.45073	0
2768.84	0.60964	93.4566	1.45073	0
2769.66	0.54445	93.4566	1.45073	0
2770.76	0.7928	93.4566	1.45072	0
2771.85	0.39279	93.4566	1.45072	0
2772.68	0.55775	93.4566	1.45072	0
2773.77	0.83088	93.4566	1.45072	0
2774.87	1.33696	93.4566	1.45072	0
2775.69	1.11514	93.4566	1.45072	0
2776.79	0.67074	93.4566	1.45072	0
2777.61	0.79947	93.4566	1.45072	0
2778.71	0.78891	93.4566	1.45072	0
2779.8	0.45755	93.4566	1.45072	0
2780.63	0.91774	93.4566	1.45072	0
2781.72	0.0605	93.4566	1.45072	0
2782.82	0.27064	93.4566	1.45072	0
2783.64	0.91968	93.4566	1.45072	0
2784.74	0.99659	93.4566	1.45072	0
2785.83	0.84178	93.4566	1.45072	0
2786.65	0.52076	93.4566	1.45072	0
2787.75	0.53441	93.4566	1.45072	0
2788.85	0.90569	93.4566	1.45072	0
2789.67	0.43178	93.4566	1.45072	0
2790.76	0.70949	93.4566	1.45072	0
2791.86	0.80569	93.4566	1.45072	0
2792.68	0.76246	93.4566	1.45072	0
2793.78	0.90089	93.4566	1.45072	0
2794.6	0.83254	93.4566	1.45072	0
2795.69	0.53747	93.4566	1.45072	0
2796.79	0.64642	93.4566	1.45072	0
2797.61	0.4621	93.4566	1.45072	0
2798.71	0.82099	93.4567	1.45072	0
2799.8	0.17787	93.4567	1.45072	0
2800.62	0.43354	93.4567	1.45072	0
2801.72	0.38876	93.4567	1.45072	0
2802.81	0.29488	93.4567	1.45072	0
2803.63	0.30337	93.4567	1.45071	0
2804.73	0.80804	93.4567	1.45071	0
2805.82	0.51259	93.4567	1.45071	0
2806.65	0.16022	93.4567	1.45071	0
2807.74	0.47525	93.4567	1.45071	0
2808.84	0.57411	93.4567	1.45071	0
2809.66	0.43763	93.4567	1.45071	0
2810.75	0.35865	93.4567	1.45071	0
2811.85	0.12965	93.4567	1.45071	0
2812.67	0.08604	93.4567	1.45071	0
2813.76	0.16423	93.4567	1.45071	0
2814.86	0.14311	93.4567	1.45071	0
2815.68	0.16677	93.4567	1.45071	0
2816.77	0.08853	93.4567	1.45071	0
2817.59	0.84913	93.4567	1.45071	0
2818.69	1.05011	93.4567	1.45071	0
2819.78	1.76475	93.4567	1.45071	0
2820.6	2.03743	93.4567	1.45071	0
2821.7	1.96429	93.4567	1.45071	0
2822.79	1.82596	93.4567	1.45071	0
2823.61	1.79632	93.4567	1.45071	0
2824.71	2.19584	93.4568	1.45071	0
2825.8	2.92975	93.4568	1.45071	0
2826.62	2.49567	93.4568	1.45071	0
2827.71	3.01429	93.4568	1.45071	0
2828.81	2.65733	93.4568	1.45071	0
2829.63	3.10301	93.4568	1.45071	0
2830.72	3.63214	93.4568	1.45071	0
2831.82	3.19289	93.4568	1.45071	0
2832.64	3.2115	93.4568	1.45071	0
2833.73	3.98071	93.4568	1.45071	0
2834.82	4.71524	93.4568	1.45071	0
2835.64	4.67304	93.4568	1.45071	0
2836.74	5.27786	93.4568	1.45071	0
2837.83	5.77963	93.4568	1.4507	0
2838.65	5.88991	93.4568	1.4507	0
2839.74	5.96491	93.4568	1.4507	0
2840.84	6.7254	93.4568	1.4507	0
2841.66	7.17515	93.4568	1.4507	0
2842.75	7.61978	93.4568	1.4507	0
2843.84	8.20048	93.4568	1.4507	0
2844.66	8.32569	93.4568	1.4507	0
2845.76	8.53487	93.4568	1.4507	0
2846.85	8.96433	93.4569	1.4507	0
2847.67	10.0727	93.4569	1.4507	0
2848.76	10.3016	93.4569	1.4507	0
2849.58	10.7288	93.4569	1.4507	0
2850.67	10.9532	93.4569	1.4507	0
2851.77	11.6874	93.4569	1.4507	0
2852.59	12.5215	93.4569	1.4507	0
2853.68	12.6252	93.4569	1.4507	0
2854.77	13.3515	93.4569	1.4507	0
2855.59	14.0871	93.4569	1.4507	0
2856.68	14.0687	93.4569	1.4507	0
2857.78	15.4463	93.4569	1.4507	0
2858.59	15.5814	93.4569	1.4507	0
2859.69	16.9636	93.4569	1.4507	0
2860.78	17.4602	93.4569	1.4507	0
2861.6	18.019	93.4569	1.4507	0
2862.69	18.5107	93.4569	1.4507	0
2863.78	19.6524	93.4569	1.4507	0
2864.6	19.9473	93.4569	1.4507	0
2865.69	19.9488	93.4569	1.4507	0
2866.79	20.7313	93.457	1.4507	0
2867.6	21.1565	93.457	1.4507	0
2868.7	22.3209	93.457	1.4507	0
2869.79	23.0444	93.457	1.4507	0
2870.61	23.8514	93.457	1.4507	0
2871.7	24.5889	93.457	1.4507	0
2872.79	24.9233	93.457	1.45069	0
2873.61	25.14	93.457	1.45069	0
2874.7	26.0993	93.457	1.45069	0
2875.79	26.7957	93.457	1.45069	0
2876.61	27.3234	93.457	1.45069	0
2877.7	28.2387	93.457	1.45069	0
2878.79	29.2363	93.457	1.45069	0
2879.61	29.4425	93.457	1.45069	0
2880.7	30.2663	93.457	1.45069	0
2881.79	30.9309	93.457	1.45069	0
2882.61	31.3303	93.457	1.45069	0
2883.7	32.2798	93.457	1.45069	0
2884.79	33.238	93.4571	1.45069	0
2885.61	33.61	93.4571	1.45069	0
2886.7	34.2013	93.4571	1.45069	0
2887.79	34.386	93.4571	1.45069	0
2888.61	35.0659	93.4571	1.45069	0
2889.7	35.6042	93.4571	1.45069	0
2890.79	35.9144	93.4571	1.45069	0
2891.61	36.4037	93.4571	1.45069	0
2892.7	36.8147	93.4571	1.45069	0
2893.79	37.7094	93.4571	1.45069	0
2894.61	37.6212	93.4571	1.45069	0
2895.7	38.1935	93.4571	1.45069	0
2896.79	38.6847	93.4571	1.45069	0
2897.61	39.1773	93.4571	1.45069	0
2898.7	39.6064	93.4571	1.45069	0
2899.79	40.2951	93.4571	1.45069	0
2900.61	40.9595	93.4571	1.45069	0
2901.7	41.5168	93.4572	1.45069	0
2902.79	42.0416	93.4572	1.45069	0
2903.61	42.5348	93.4572	1.45069	0
2904.7	43.173	93.4572	1.45069	0
2905.79	43.7882	93.4572	1.45069	0
2906.6	43.9768	93.4572	1.45069	0
2907.69	44.8347	93.4572	1.45069	0
2908.78	44.8302	93.4572	1.45068	0
2909.6	45.4201	93.4572	1.45068	0
2910.69	46.2053	93.4572	1.45068	0
2911.78	46.5277	93.4572	1.45068	0
2912.6	46.5016	93.4572	1.45068	0
2913.69	47.1959	93.4572	1.45068	0
2914.78	47.8472	93.4572	1.45068	0
2915.59	47.8285	93.4572	1.45068	0
2916.68	48.447	93.4573	1.45068	0
2917.77	48.4334	93.4573	1.45068	0
2918.59	49.424	93.4573	1.45068	0
2919.68	49.5386	93.4573	1.45068	0
2920.77	50.2442	93.4573	1.45068	0
2921.58	50.902	93.4573	1.45068	0
2922.67	50.9877	93.4573	1.45068	0
2923.76	51.4814	93.4573	1.45068	0
2924.58	52.1741	93.4573	1.45068	0
2925.67	52.2088	93.4573	1.45068	0
2926.76	52.2555	93.4573	1.45068	0
2927.57	52.5734	93.4573	1.45068	0
2928.66	53.1495	93.4573	1.45068	0
2929.75	53.7842	93.4573	1.45068	0
2930.57	54.0108	93.4573	1.45068	0
2931.66	54.1539	93.4574	1.45068	0
2932.74	54.0655	93.4574	1.45068	0
2933.56	55.0415	93.4574	1.45068	0
2934.65	54.4476	93.4574	1.45068	0
2935.74	54.7556	93.4574	1.45068	0
2936.55	55.2602	93.4574	1.45068	0
2937.64	56.023	93.4574	1.45068	0
2938.73	55.7496	93.4574	1.45068	0
2939.82	56.1773	93.4574	1.45068	0
2940.63	56.1755	93.4574	1.45068	0
2941.72	56.3871	93.4574	1.45068	0
2942.81	56.8237	93.4574	1.45068	0
2943.63	57.2099	93.4574	1.45068	0
2944.71	57.2201	93.4574	1.45068	0
2945.8	57.2068	93.4575	1.45068	0
2946.62	58.3227	93.4575	1.45068	0
2947.71	58.2174	93.4575	1.45067	0
2948.79	58.6447	93.4575	1.45067	0
2949.61	59.0283	93.4575	1.45067	0
2950.7	58.8808	93.4575	1.45067	0
2951.78	59.4902	93.4575	1.45067	0
2952.6	59.8767	93.4575	1.45067	0
2953.69	60.1367	93.4575	1.45067	0
2954.77	60.7828	93.4575	1.45067	0
2955.59	60.6707	93.4575	1.45067	0
2956.68	60.7833	93.4575	1.45067	0
2957.76	60.7666	93.4575	1.45067	0
2958.58	61.3081	93.4575	1.45067	0
2959.67	61.4603	93.4576	1.45067	0
2960.75	61.2099	93.4576	1.45067	0
2961.57	61.8188	93.4576	1.45067	0
2962.66	62.1584	93.4576	1.45067	0
2963.74	62.3778	93.4576	1.45067	0
2964.56	62.0587	93.4576	1.45067	0
2965.65	63.2325	93.4576	1.45067	0
2966.73	63.4914	93.4576	1.45067	0
2967.55	62.9243	93.4576	1.45067	0
2968.63	62.9955	93.4576	1.45067	0
2969.72	63.826	93.4576	1.45067	0
2970.81	63.9091	93.4576	1.45067	0
2971.62	63.5876	93.4576	1.45067	0
2972.71	64.4792	93.4577	1.45067	0
2973.79	64.0402	93.4577	1.45067	0
2974.61	64.7996	93.4577	1.45067	0
2975.7	64.8795	93.4577	1.45067	0
2976.78	65.0962	93.4577	1.45067	0
2977.6	64.9444	93.4577	1.45067	0
2978.68	64.8871	93.4577	1.45067	0
2979.77	65.0898	93.4577	1.45067	0
2980.58	65.7701	93.4577	1.45067	0
2981.67	65.5663	93.4577	1.45067	0
2982.75	65.6725	93.4577	1.45067	0
2983.57	65.8964	93.4577	1.45067	0
2984.65	66.1898	93.4577	1.45067	0
2985.74	66.344	93.4578	1.45067	0
2986.55	66.2969	93.4578	1.45066	0
2987.64	66.2174	93.4578	1.45066	0
2988.73	66.5671	93.4578	1.45066	0
2989.54	66.9001	93.4578	1.45066	0
2990.63	66.8759	93.4578	1.45066	0
2991.71	66.9596	93.4578	1.45066	0
2992.8	67.0184	93.4578	1.45066	0
2993.61	67.8421	93.4578	1.45066	0
2994.7	67.9715	93.4578	1.45066	0
2995.78	68.1397	93.4578	1.45066	0
2996.59	68.2141	93.4578	1.45066	0
2997.68	68.6511	93.4579	1.45066	0
2998.76	68.3917	93.4579	1.45066	0
2999.58	67.8977	93.4579	1.45066	0
3000.66	68.6538	93.4579	1.45066	0
3001.75	69.1943	93.4579	1.45066	0
3002.56	69.2545	93.4579	1.45066	0
3003.65	69.6012	93.4579	1.45066	0
3004.73	69.474	93.4579	1.45066	0
3005.54	69.1329	93.4579	1.45066	0
3006.63	69.6972	93.4579	1.45066	0
3007.71	70.1309	93.4579	1.45066	0
3008.8	69.6733	93.4579	1.45066	0
3009.61	69.9495	93.458	1.45066	0
3010.7	69.5683	93.458	1.45066	0
3011.78	69.8878	93.458	1.45066	0
3012.59	70.319	93.458	1.45066	0
3013.68	69.9242	93.458	1.45066	0
3014.76	70.3394	93.458	1.45066	0
3015.57	70.5127	93.458	1.45066	0
3016.66	70.654	93.458	1.45066	0
3017.74	70.413	93.458	1.45066	0
3018.56	70.5599	93.458	1.45066	0
3019.64	70.6131	93.458	1.45066	0
3020.72	70.716	93.458	1.45066	0
3021.54	70.6866	93.4581	1.45066	0
3022.62	70.6642	93.4581	1.45066	0
3023.7	70.6994	93.4581	1.45066	0
3024.79	71.4569	93.4581	1.45066	0
3025.6	71.3992	93.4581	1.45066	0
3026.68	71.2392	93.4581	1.45066	0
3027.77	71.0416	93.4581	1.45065	0
3028.58	71.677	93.4581	1.45065	0
3029.66	71.7912	93.4581	1.45065	0
3030.75	71.8383	93.4581	1.45065	0
3031.56	71.7576	93.4581	1.45065	0
3032.64	71.6319	93.4582	1.45065	0
3033.72	72.2935	93.4582	1.45065	0
3034.54	71.7176	93.4582	1.45065	0
3035.62	71.9488	93.4582	1.45065	0
3036.7	72.5109	93.4582	1.45065	0
3037.79	72.7787	93.4582	1.45065	0
3038.6	72.8316	93.4582	1.45065	0
3039.68	72.9733	93.4582	1.45065	0
3040.76	73.7014	93.4582	1.45065	0
3041.58	73.0436	93.4582	1.45065	0
3042.66	72.8913	93.4582	1.45065	0
3043.74	72.8007	93.4583	1.45065	0
3044.55	73.1721	93.4583	1.45065	0
3045.64	73.0072	93.4583	1.45065	0
3046.72	73.2677	93.4583	1.45065	0
3047.53	73.3026	93.4583	1.45065	0
3048.61	73.4862	93.4583	1.45065	0
3049.69	74.2516	93.4583	1.45065	0
3050.78	74.1288	93.4583	1.45065	0
3051.59	73.8347	93.4583	1.45065	0
3052.67	74.0213	93.4583	1.45065	0
3053.75	74.9399	93.4583	1.45065	0
3054.56	74.1129	93.4583	1.45065	0
3055.65	74.7518	93.4584	1.45065	0
3056.73	73.7846	93.4584	1.45065	0
3057.54	74.8666	93.4584	1.45065	0
3058.62	74.8123	93.4584	1.45065	0
3059.7	74.937	93.4584	1.45065	0
3060.51	74.7897	93.4584	1.45065	0
3061.59	74.8454	93.4584	1.45065	0
3062.68	74.8667	93.4584	1.45065	0
3063.76	75.1604	93.4584	1.45065	0
3064.57	75.1993	93.4584	1.45065	0
3065.65	75.3146	93.4585	1.45065	0
3066.73	74.9815	93.4585	1.45065	0
3067.54	75.9501	93.4585	1.45065	0
3068.62	75.0857	93.4585	1.45065	0
3069.7	75.1912	93.4585	1.45065	0
3070.52	75.2497	93.4585	1.45064	0
3071.6	74.6193	93.4585	1.45064	0
3072.68	75.549	93.4585	1.45064	0
3073.76	75.193	93.4585	1.45064	0
3074.57	75.1273	93.4585	1.45064	0
3075.65	75.1379	93.4585	1.45064	0
3076.73	75.7163	93.4586	1.45064	0
3077.54	76.0246	93.4586	1.45064	0
3078.62	75.8973	93.4586	1.45064	0
3079.7	75.8049	93.4586	1.45064	0
3080.51	76.107	93.4586	1.45064	0
3081.59	75.9514	93.4586	1.45064	0
3082.67	75.5186	93.4586	1.45064	0
3083.75	75.9994	93.4586	1.45064	0
3084.56	76.1974	93.4586	1.45064	0
3085.64	75.975	93.4586	1.45064	0
3086.72	75.9946	93.4587	1.45064	0
3087.54	76.0149	93.4587	1.45064	0
3088.62	75.6027	93.4587	1.45064	0
3089.7	76.4549	93.4587	1.45064	0
3090.51	76.0582	93.4587	1.45064	0
3091.59	76.2998	93.4587	1.45064	0
3092.66	76.3798	93.4587	1.45064	0
3093.74	76.5767	93.4587	1.45064	0
3094.55	76.639	93.4587	1.45064	0
3095.63	76.3897	93.4587	1.45064	0
3096.71	76.615	93.4588	1.45064	0
3097.52	76.6576	93.4588	1.45064	0
3098.6	76.3293	93.4588	1.45064	0
3099.68	76.1902	93.4588	1.45064	0
3100.76	76.5539	93.4588	1.45064	0
3101.57	77.2253	93.4588	1.45064	0
3102.65	76.7756	93.4588	1.45064	0
3103.73	76.8273	93.4588	1.45064	0
3104.54	77.3191	93.4588	1.45064	0
3105.62	76.9311	93.4588	1.45064	0
3106.7	76.8093	93.4589	1.45064	0
3107.51	76.2956	93.4589	1.45064	0
3108.59	76.9415	93.4589	1.45064	0
3109.66	77.2676	93.4589	1.45064	0
3110.74	77.2839	93.4589	1.45064	0
3111.55	76.9403	93.4589	1.45064	0
3112.63	77.155	93.4589	1.45064	0
3113.71	77.1665	93.4589	1.45064	0
3114.52	77.2727	93.4589	1.45064	0
3115.6	77.9529	93.4589	1.45063	0
3116.68	77.1879	93.459	1.45063	0
3117.75	77.214	93.459	1.45063	0
3118.56	76.9947	93.459	1.45063	0
3119.64	78.1087	93.459	1.45063	0
3120.72	76.8385	93.459	1.45063	0
3121.53	77.4188	93.459	1.45063	0
3122.61	77.4056	93.459	1.45063	0
3123.69	77.0836	93.459	1.45063	0
3124.49	76.853	93.459	1.45063	0
3125.57	77.3573	93.459	1.45063	0
3126.65	77.3901	93.4591	1.45063	0
3127.73	77.342	93.4591	1.45063	0
3128.54	77.6189	93.4591	1.45063	0
3129.61	77.1729	93.4591	1.45063	0
3130.69	76.9878	93.4591	1.45063	0
3131.5	77.7918	93.4591	1.45063	0
3132.58	77.6179	93.4591	1.45063	0
3133.66	77.8479	93.4591	1.45063	0
3134.73	77.5583	93.4591	1.45063	0
3135.54	77.7498	93.4591	1.45063	0
3136.62	77.6343	93.4592	1.45063	0
3137.7	78.3397	93.4592	1.45063	0
3138.5	77.9301	93.4592	1.45063	0
3139.58	77.9033	93.4592	1.45063	0
3140.66	77.9169	93.4592	1.45063	0
3141.73	78.6796	93.4592	1.45063	0
3142.54	78.0936	93.4592	1.45063	0
3143.62	77.5897	93.4592	1.45063	0
3144.7	77.1948	93.4592	1.45063	0
3145.5	78.758	93.4592	1.45063	0
3146.58	77.9735	93.4593	1.45063	0
3147.66	78.6599	93.4593	1.45063	0
3148.73	77.8679	93.4593	1.45063	0
3149.54	78.4218	93.4593	1.45063	0
3150.62	78.005	93.4593	1.45063	0
3151.7	78.6231	93.4593	1.45063	0
3152.5	77.9038	93.4593	1.45063	0
3153.58	77.613	93.4593	1.45063	0
3154.66	78.5011	93.4593	1.45063	0
3155.73	78.1236	93.4594	1.45063	0
3156.54	78.3727	93.4594	1.45063	0
3157.62	78.9445	93.4594	1.45063	0
3158.69	78.6063	93.4594	1.45063	0
3159.5	78.5286	93.4594	1.45063	0
3160.57	78.539	93.4594	1.45063	0
3161.65	78.5366	93.4594	1.45063	0
3162.73	78.0436	93.4594	1.45062	0
3163.53	78.0427	93.4594	1.45062	0
3164.61	78.4292	93.4595	1.45062	0
3165.68	78.4207	93.4595	1.45062	0
3166.49	78.548	93.4595	1.45062	0
3167.57	78.7326	93.4595	1.45062	0
3168.64	78.9487	93.4595	1.45062	0
3169.72	78.6124	93.4595	1.45062	0
3170.52	78.7506	93.4595	1.45062	0
3171.6	78.9268	93.4595	1.45062	0
3172.68	78.6972	93.4595	1.45062	0
3173.48	79.5449	93.4595	1.45062	0
3174.56	79.0892	93.4596	1.45062	0
3175.63	78.9461	93.4596	1.45062	0
3176.71	78.5683	93.4596	1.45062	0
3177.51	79.0485	93.4596	1.45062	0
3178.59	78.9263	93.4596	1.45062	0
3179.66	78.7286	93.4596	1.45062	0
3180.74	79.403	93.4596	1.45062	0
3181.54	79.517	93.4596	1.45062	0
3182.62	79.1888	93.4596	1.45062	0
3183.69	79.246	93.4597	1.45062	0
3184.5	79.3053	93.4597	1.45062	0
3185.57	79.1753	93.4597	1.45062	0
3186.65	79.3933	93.4597	1.45062	0
3187.72	79.5477	93.4597	1.45062	0
3188.53	79.6233	93.4597	1.45062	0
3189.6	79.3094	93.4597	1.45062	0
3190.68	79.8004	93.4597	1.45062	0
3191.48	78.8842	93.4597	1.45062	0
3192.56	79.6874	93.4598	1.45062	0
3193.63	79.5184	93.4598	1.45062	0
3194.71	79.6727	93.4598	1.45062	0
3195.51	79.4688	93.4598	1.45062	0
3196.59	80.2401	93.4598	1.45062	0
3197.66	79.5682	93.4598	1.45062	0
3198.73	80.0486	93.4598	1.45062	0
3199.54	79.6558	93.4598	1.45062	0
3200.61	80.1002	93.4598	1.45062	0
3201.69	79.5406	93.4599	1.45062	0
3202.49	80.1798	93.4599	1.45062	0
3203.56	79.8364	93.4599	1.45062	0
3204.64	79.7547	93.4599	1.45062	0
3205.71	79.8999	93.4599	1.45062	0
3206.52	80.077	93.4599	1.45062	0
3207.59	80.0371	93.4599	1.45062	0
3208.66	80.3369	93.4599	1.45062	0
3209.47	80.5641	93.4599	1.45062	0
3210.54	80.0174	93.46	1.45062	0
3211.61	80.041	93.46	1.45061	0
3212.69	80.1044	93.46	1.45061	0
3213.49	80.0977	93.46	1.45061	0
3214.57	80.8202	93.46	1.45061	0
3215.64	80.5511	93.46	1.45061	0
3216.71	79.9301	93.46	1.45061	0
3217.52	80.6042	93.46	1.45061	0
3218.59	80.59	93.4601	1.45061	0
3219.66	80.8606	93.4601	1.45061	0
3220.46	80.6015	93.4601	1.45061	0
3221.54	80.4226	93.4601	1.45061	0
3222.61	80.8473	93.4601	1.45061	0
3223.68	81.0373	93.4601	1.45061	0
3224.49	80.5853	93.4601	1.45061	0
3225.56	81.1284	93.4601	1.45061	0
3226.63	80.3588	93.4601	1.45061	0
3227.7	80.5314	93.4602	1.45061	0
3228.51	81.1241	93.4602	1.45061	0
3229.58	81.4167	93.4602	1.45061	0
3230.65	80.8382	93.4602	1.45061	0
3231.72	80.7815	93.4602	1.45061	0
3232.53	80.9788	93.4602	1.45061	0
3233.6	81.1408	93.4602	1.45061	0
3234.67	81.4102	93.4602	1.45061	0
3235.47	80.5273	93.4602	1.45061	0
3236.55	80.6625	93.4603	1.45061	0
3237.62	81.2151	93.4603	1.45061	0
3238.69	81.1242	93.4603	1.45061	0
3239.49	81.0097	93.4603	1.45061	0
3240.56	81.1181	93.4603	1.45061	0
3241.64	80.8923	93.4603	1.45061	0
3242.71	80.8524	93.4603	1.45061	0
3243.51	81.8368	93.4603	1.45061	0
3244.58	81.0217	93.4603	1.45061	0
3245.65	80.6592	93.4604	1.45061	0
3246.46	80.2998	93.4604	1.45061	0
3247.53	81.0274	93.4604	1.45061	0
3248.6	81.2185	93.4604	1.45061	0
3249.67	81.2388	93.4604	1.45061	0
3250.47	81.0821	93.4604	1.45061	0
3251.54	81.4231	93.4604	1.45061	0
3252.61	81.2011	93.4604	1.45061	0
3253.68	81.3235	93.4605	1.45061	0
3254.49	81.4467	93.4605	1.45061	0
3255.56	81.143	93.4605	1.45061	0
3256.63	81.2782	93.4605	1.45061	0
3257.7	80.9625	93.4605	1.45061	0
3258.5	80.4885	93.4605	1.45061	0
3259.57	81.7353	93.4605	1.45061	0
3260.64	81.3193	93.4605	1.45061	0
3261.71	81.1498	93.4605	1.45061	0
3262.51	81.1631	93.4606	1.4506	0
3263.58	80.6257	93.4606	1.4506	0
3264.65	81.3436	93.4606	1.4506	0
3265.46	81.5697	93.4606	1.4506	0
3266.53	81.4783	93.4606	1.4506	0
3267.6	81.5495	93.4606	1.4506	0
3268.66	81.4131	93.4606	1.4506	0
3269.47	80.3027	93.4606	1.4506	0
3270.54	81.2385	93.4607	1.4506	0
3271.61	81.4588	93.4607	1.4506	0
3272.68	82.0029	93.4607	1.4506	0
3273.48	81.2018	93.4607	1.4506	0
3274.55	81.5662	93.4607	1.4506	0
3275.62	81.9185	93.4607	1.4506	0
3276.69	81.8722	93.4607	1.4506	0
3277.49	82.1071	93.4607	1.4506	0
3278.56	82.0109	93.4607	1.4506	0
3279.63	81.7043	93.4608	1.4506	0
3280.69	81.6316	93.4608	1.4506	0
3281.5	81.408	93.4608	1.4506	0
3282.57	82.4109	93.4608	1.4506	0
3283.63	81.6572	93.4608	1.4506	0
3284.7	81.312	93.4608	1.4506	0
3285.5	81.8003	93.4608	1.4506	0
3286.57	81.733	93.4608	1.4506	0
3287.64	81.9049	93.4609	1.4506	0
3288.44	81.1151	93.4609	1.4506	0
3289.51	81.7895	93.4609	1.4506	0
3290.58	82.2217	93.4609	1.4506	0
3291.65	81.8529	93.4609	1.4506	0
3292.45	82.176	93.4609	1.4506	0
3293.52	81.955	93.4609	1.4506	0
3294.59	82.5268	93.4609	1.4506	0
3295.65	81.6602	93.461	1.4506	0
3296.46	81.5546	93.461	1.4506	0
3297.52	81.4837	93.461	1.4506	0
3298.59	81.9132	93.461	1.4506	0
3299.66	81.6756	93.461	1.4506	0
3300.46	81.7636	93.461	1.4506	0
3301.53	82.3272	93.461	1.4506	0
3302.6	81.9787	93.461	1.4506	0
3303.66	81.8765	93.4611	1.4506	0
3304.46	81.8584	93.4611	1.4506	0
3305.53	81.3881	93.4611	1.4506	0
3306.6	80.9075	93.4611	1.4506	0
3307.67	82.3264	93.4611	1.4506	0
3308.47	81.8604	93.4611	1.4506	0
3309.53	82.0148	93.4611	1.4506	0
3310.6	82.3377	93.4611	1.4506	0
3311.67	82.3714	93.4611	1.4506	0
3312.47	81.7121	93.4612	1.4506	0
3313.54	81.7527	93.4612	1.4506	0
3314.6	82.0051	93.4612	1.4506	0
3315.67	81.6521	93.4612	1.4506	0
3316.47	82.2478	93.4612	1.45059	0
3317.54	82.575	93.4612	1.45059	0
3318.6	82.4555	93.4612	1.45059	0
3319.67	81.9951	93.4612	1.45059	0
3320.47	82.7461	93.4613	1.45059	0
3321.54	82.296	93.4613	1.45059	0
3322.6	82.0539	93.4613	1.45059	0
3323.67	82.5704	93.4613	1.45059	0
3324.47	82.1466	93.4613	1.45059	0
3325.53	82.2272	93.4613	1.45059	0
3326.6	81.8411	93.4613	1.45059	0
3327.67	81.3745	93.4613	1.45059	0
3328.47	82.5677	93.4614	1.45059	0
3329.53	81.3208	93.4614	1.45059	0
3330.6	81.6663	93.4614	1.45059	0
3331.66	82.6231	93.4614	1.45059	0
3332.46	82.5737	93.4614	1.45059	0
3333.53	82.2322	93.4614	1.45059	0
3334.6	82.5435	93.4614	1.45059	0
3335.66	82.0553	93.4614	1.45059	0
3336.46	81.9761	93.4615	1.45059	0
3337.53	82.3368	93.4615	1.45059	0
3338.59	82.6441	93.4615	1.45059	0
3339.66	82.3177	93.4615	1.45059	0
3340.46	81.7269	93.4615	1.45059	0
3341.52	81.9828	93.4615	1.45059	0
3342.59	81.9211	93.4615	1.45059	0
3343.65	81.344	93.4615	1.45059	0
3344.45	81.8286	93.4616	1.45059	0
3345.52	81.4669	93.4616	1.45059	0
3346.58	81.0806	93.4616	1.45059	0
3347.65	81.7243	93.4616	1.45059	0
3348.44	81.5946	93.4616	1.45059	0
3349.51	81.3404	93.4616	1.45059	0
3350.57	81.2955	93.4616	1.45059	0
3351.64	80.8858	93.4616	1.45059	0
3352.44	81.5883	93.4617	1.45059	0
3353.5	80.6049	93.4617	1.45059	0
3354.57	81.231	93.4617	1.45059	0
3355.63	80.6452	93.4617	1.45059	0
3356.43	81.858	93.4617	1.45059	0
3357.49	81.4879	93.4617	1.45059	0
3358.56	81.3085	93.4617	1.45059	0
3359.62	80.8024	93.4617	1.45059	0
3360.42	81.3464	93.4618	1.45059	0
3361.48	80.9874	93.4618	1.45059	0
3362.55	80.7694	93.4618	1.45059	0
3363.61	81.4417	93.4618	1.45059	0
3364.68	81.0116	93.4618	1.45059	0
3365.47	81.3468	93.4618	1.45059	0
3366.54	81.3046	93.4618	1.45059	0
3367.6	80.8044	93.4618	1.45059	0
3368.67	80.9778	93.4619	1.45059	0
3369.46	81.6236	93.4619	1.45059	0
3370.53	81.2846	93.4619	1.45059	0
3371.59	81.2385	93.4619	1.45059	0
3372.65	79.4797	93.4619	1.45059	0
3373.45	81.147	93.4619	1.45058	0
3374.51	81.3107	93.4619	1.45058	0
3375.58	80.2971	93.4619	1.45058	0
3376.64	80.9221	93.462	1.45058	0
3377.44	80.5433	93.462	1.45058	0
3378.5	80.7546	93.462	1.45058	0
3379.56	80.6076	93.462	1.45058	0
3380.63	80.9294	93.462	1.45058	0
3381.42	80.4301	93.462	1.45058	0
3382.49	81.0942	93.462	1.45058	0
3383.55	80.4053	93.462	1.45058	0
3384.61	79.6572	93.4621	1.45058	0
3385.41	80.5299	93.4621	1.45058	0
3386.47	79.3201	93.4621	1.45058	0
3387.53	80.5191	93.4621	1.45058	0
3388.6	80.9485	93.4621	1.45058	0
3389.66	80.288	93.4621	1.45058	0
3390.46	80.3414	93.4621	1.45058	0
3391.52	80.2001	93.4621	1.45058	0
3392.58	80.1008	93.4622	1.45058	0
3393.64	80.1045	93.4622	1.45058	0
3394.44	79.7489	93.4622	1.45058	0
3395.5	80.3918	93.4622	1.45058	0
3396.56	79.7527	93.4622	1.45058	0
3397.62	79.8037	93.4622	1.45058	0
3398.42	79.7767	93.4622	1.45058	0
3399.48	79.9615	93.4622	1.45058	0
3400.54	79.8151	93.4623	1.45058	0
3401.61	79.2488	93.4623	1.45058	0
3402.4	79.2937	93.4623	1.45058	0
3403.46	79.3373	93.4623	1.45058	0
3404.52	78.8417	93.4623	1.45058	0
3405.59	78.6689	93.4623	1.45058	0
3406.65	78.9042	93.4623	1.45058	0
3407.44	79.0216	93.4623	1.45058	0
3408.5	78.5222	93.4624	1.45058	0
3409.57	78.3547	93.4624	1.45058	0
3410.63	79.0517	93.4624	1.45058	0
3411.42	79.082	93.4624	1.45058	0
3412.48	78.2579	93.4624	1.45058	0
3413.54	78.8715	93.4624	1.45058	0
3414.6	77.7583	93.4624	1.45058	0
3415.4	78.3611	93.4625	1.45058	0
3416.46	78.1704	93.4625	1.45058	0
3417.52	79.1858	93.4625	1.45058	0
3418.58	78.6102	93.4625	1.45058	0
3419.64	78.8054	93.4625	1.45058	0
3420.44	78.2572	93.4625	1.45058	0
3421.5	77.3763	93.4625	1.45058	0
3422.56	78.4053	93.4625	1.45058	0
3423.62	77.3612	93.4626	1.45058	0
3424.41	77.3711	93.4626	1.45058	0
3425.47	77.3378	93.4626	1.45058	0
3426.53	77.2728	93.4626	1.45058	0
3427.59	76.9392	93.4626	1.45058	0
3428.65	77.1264	93.4626	1.45058	0
3429.45	77.4031	93.4626	1.45058	0
3430.51	77.0473	93.4626	1.45058	0
3431.57	76.0003	93.4627	1.45058	0
3432.63	76.7135	93.4627	1.45057	0
3433.42	76.4192	93.4627	1.45057	0
3434.48	76.1694	93.4627	1.45057	0
3435.54	76.2726	93.4627	1.45057	0
3436.6	76.819	93.4627	1.45057	0
3437.4	76.1538	93.4627	1.45057	0
3438.46	75.532	93.4627	1.45057	0
3439.51	75.7742	93.4628	1.45057	0
3440.57	75.8804	93.4628	1.45057	0
3441.63	76.072	93.4628	1.45057	0
3442.43	74.9829	93.4628	1.45057	0
3443.49	75.1276	93.4628	1.45057	0
3444.54	74.8037	93.4628	1.45057	0
3445.6	74.7006	93.4628	1.45057	0
3446.4	75.4066	93.4629	1.45057	0
3447.46	74.9663	93.4629	1.45057	0
3448.51	75.2722	93.4629	1.45057	0
3449.57	74.8203	93.4629	1.45057	0
3450.63	74.1925	93.4629	1.45057	0
3451.43	73.9603	93.4629	1.45057	0
3452.48	74.1668	93.4629	1.45057	0
3453.54	74.924	93.4629	1.45057	0
3454.6	74.4247	93.463	1.45057	0
3455.39	73.5529	93.463	1.45057	0
3456.45	74.1757	93.463	1.45057	0
3457.51	72.9273	93.463	1.45057	0
3458.57	73.4198	93.463	1.45057	0
3459.63	73.3281	93.463	1.45057	0
3460.42	72.8458	93.463	1.45057	0
3461.48	72.8121	93.463	1.45057	0
3462.54	72.4298	93.4631	1.45057	0
3463.59	73.0796	93.4631	1.45057	0
3464.39	72.13	93.4631	1.45057	0
3465.44	71.9464	93.4631	1.45057	0
3466.5	72.0987	93.4631	1.45057	0
3467.56	71.9921	93.4631	1.45057	0
3468.62	71.3387	93.4631	1.45057	0
3469.41	71.8039	93.4632	1.45057	0
3470.47	70.7934	93.4632	1.45057	0
3471.52	71.6767	93.4632	1.45057	0
3472.58	70.8828	93.4632	1.45057	0
3473.64	70.0751	93.4632	1.45057	0
3474.43	71.0105	93.4632	1.45057	0
3475.49	70.547	93.4632	1.45057	0
3476.54	69.5794	93.4632	1.45057	0
3477.6	69.924	93.4633	1.45057	0
3478.39	69.6588	93.4633	1.45057	0
3479.45	69.9444	93.4633	1.45057	0
3480.51	69.6886	93.4633	1.45057	0
3481.56	69.0561	93.4633	1.45057	0
3482.62	68.6608	93.4633	1.45057	0
3483.41	67.8546	93.4633	1.45057	0
3484.47	67.964	93.4634	1.45057	0
3485.53	68.2207	93.4634	1.45057	0
3486.58	67.9444	93.4634	1.45057	0
3487.37	68.209	93.4634	1.45057	0
3488.43	67.5923	93.4634	1.45057	0
3489.49	66.8077	93.4634	1.45057	0
3490.54	66.3572	93.4634	1.45057	0
3491.6	66.8469	93.4634	1.45057	0
3492.39	66.155	93.4635	1.45057	0
3493.45	65.9789	93.4635	1.45057	0
3494.5	65.606	93.4635	1.45057	0
3495.56	65.2741	93.4635	1.45056	0
3496.61	65.1146	93.4635	1.45056	0
3497.4	65.7052	93.4635	1.45056	0
3498.46	65.6123	93.4635	1.45056	0
3499.51	64.9417	93.4635	1.45056	0
3500.57	64.722	93.4636	1.45056	0
3501.63	64.2459	93.4636	1.45056	0
3502.42	63.8349	93.4636	1.45056	0
3503.47	64.2474	93.4636	1.45056	0
3504.53	63.2896	93.4636	1.45056	0
3505.58	62.8386	93.4636	1.45056	0
3506.37	62.838	93.4636	1.45056	0
3507.43	63.086	93.4637	1.45056	0
3508.48	63.1001	93.4637	1.45056	0
3509.54	63.0375	93.4637	1.45056	0
3510.59	62.1396	93.4637	1.45056	0
3511.38	62.508	93.4637	1.45056	0
3512.44	61.1594	93.4637	1.45056	0
3513.49	62.0408	93.4637	1.45056	0
3514.55	61.2427	93.4637	1.45056	0
3515.6	60.6497	93.4638	1.45056	0
3516.39	61.3867	93.4638	1.45056	0
3517.45	60.0241	93.4638	1.45056	0
3518.5	60.4878	93.4638	1.45056	0
3519.55	60.2445	93.4638	1.45056	0
3520.61	59.1504	93.4638	1.45056	0
3521.4	59.7938	93.4638	1.45056	0
3522.45	58.7045	93.4639	1.45056	0
3523.51	58.888	93.4639	1.45056	0
3524.56	59.5899	93.4639	1.45056	0
3525.61	58.0115	93.4639	1.45056	0
3526.4	57.8169	93.4639	1.45056	0
3527.46	57.8887	93.4639	1.45056	0
3528.51	57.727	93.4639	1.45056	0
3529.56	58.1633	93.4639	1.45056	0
3530.62	57.9623	93.464	1.45056	0
3531.41	57.3112	93.464	1.45056	0
3532.46	57.4086	93.464	1.45056	0
3533.51	56.4465	93.464	1.45056	0
3534.57	56.4626	93.464	1.45056	0
3535.36	56.3193	93.464	1.45056	0
3536.41	56.2379	93.464	1.45056	0
3537.46	55.8804	93.4641	1.45056	0
3538.52	55.0198	93.4641	1.45056	0
3539.57	55.6108	93.4641	1.45056	0
3540.36	54.5512	93.4641	1.45056	0
3541.41	55.2136	93.4641	1.45056	0
3542.46	54.0144	93.4641	1.45056	0
3543.52	54.2736	93.4641	1.45056	0
3544.57	54.0976	93.4641	1.45056	0
3545.36	54.5086	93.4642	1.45056	0
3546.41	53.5233	93.4642	1.45056	0
3547.46	52.8775	93.4642	1.45056	0
3548.51	52.8752	93.4642	1.45056	0
3549.57	52.7513	93.4642	1.45056	0
3550.36	52.3559	93.4642	1.45056	0
3551.41	52.9904	93.4642	1.45056	0
3552.46	51.8445	93.4643	1.45056	0
3553.51	52.3331	93.4643	1.45056	0
3554.56	52.1805	93.4643	1.45056	0
3555.35	51.9583	93.4643	1.45056	0
3556.4	51.44	93.4643	1.45056	0
3557.46	51.1089	93.4643	1.45056	0
3558.51	51.2798	93.4643	1.45056	0
3559.56	50.9702	93.4643	1.45056	0
3560.61	50.0029	93.4644	1.45056	0
3561.4	50.0934	93.4644	1.45056	0
3562.45	50.1799	93.4644	1.45055	0
3563.5	49.6238	93.4644	1.45055	0
3564.55	49.9465	93.4644	1.45055	0
3565.6	50.0405	93.4644	1.45055	0
3566.39	49.4018	93.4644	1.45055	0
3567.44	49.9506	93.4645	1.45055	0
3568.49	49.7653	93.4645	1.45055	0
3569.54	49.07	93.4645	1.45055	0
3570.59	48.9366	93.4645	1.45055	0
3571.38	48.4809	93.4645	1.45055	0
3572.43	49.2035	93.4645	1.45055	0
3573.48	48.3351	93.4645	1.45055	0
3574.53	48.6481	93.4645	1.45055	0
3575.58	47.5292	93.4646	1.45055	0
3576.37	47.7154	93.4646	1.45055	0
3577.42	48.4538	93.4646	1.45055	0
3578.47	47.6863	93.4646	1.45055	0
3579.52	46.6749	93.4646	1.45055	0
3580.57	47.1392	93.4646	1.45055	0
3581.36	46.8685	93.4646	1.45055	0
3582.41	47.2294	93.4647	1.45055	0
3583.46	46.6781	93.4647	1.45055	0
3584.51	46.616	93.4647	1.45055	0
3585.56	45.7876	93.4647	1.45055	0
3586.35	46.8203	93.4647	1.45055	0
3587.4	46.3757	93.4647	1.45055	0
3588.45	45.9485	93.4647	1.45055	0
3589.5	46.3041	93.4648	1.45055	0
3590.55	45.6491	93.4648	1.45055	0
3591.59	45.7017	93.4648	1.45055	0
3592.38	45.4126	93.4648	1.45055	0
3593.43	45.5301	93.4648	1.45055	0
3594.48	45.4485	93.4648	1.45055	0
3595.53	45.2207	93.4648	1.45055	0
3596.58	44.4859	93.4648	1.45055	0
3597.36	45.2842	93.4649	1.45055	0
3598.41	44.5176	93.4649	1.45055	0
3599.46	43.7014	93.4649	1.45055	0
3600.51	43.6997	93.4649	1.45055	0
3601.56	44.2002	93.4649	1.45055	0
3602.35	43.1366	93.4649	1.45055	0
3603.39	44.6051	93.4649	1.45055	0
3604.44	43.2064	93.465	1.45055	0
3605.49	43.6904	93.465	1.45055	0
3606.54	43.6561	93.465	1.45055	0
3607.59	44.602	93.465	1.45055	0
3608.37	43.5533	93.465	1.45055	0
3609.42	43.6393	93.465	1.45055	0
3610.47	42.7474	93.465	1.45055	0
3611.52	42.6006	93.465	1.45055	0
3612.57	42.7254	93.4651	1.45055	0
3613.35	42.6474	93.4651	1.45055	0
3614.4	42.5974	93.4651	1.45055	0
3615.45	42.0025	93.4651	1.45055	0
3616.5	42.3948	93.4651	1.45055	0
3617.54	42.4475	93.4651	1.45055	0
3618.59	41.6295	93.4651	1.45055	0
3619.38	41.8682	93.4652	1.45055	0
3620.42	41.7785	93.4652	1.45055	0
3621.47	41.8997	93.4652	1.45055	0
3622.52	40.5547	93.4652	1.45055	0
3623.57	41.6521	93.4652	1.45055	0
3624.35	40.911	93.4652	1.45055	0
3625.4	40.0808	93.4652	1.45055	0
3626.44	39.6275	93.4652	1.45055	0
3627.49	40.6874	93.4653	1.45055	0
3628.54	39.7625	93.4653	1.45055	0
3629.59	39.7906	93.4653	1.45055	0
3630.37	39.8239	93.4653	1.45055	0
3631.42	39.8149	93.4653	1.45055	0
3632.46	38.6385	93.4653	1.45054	0
3633.51	39.1647	93.4653	1.45054	0
3634.56	38.7866	93.4654	1.45054	0
3635.34	38.0878	93.4654	1.45054	0
3636.39	38.2763	93.4654	1.45054	0
3637.43	36.8028	93.4654	1.45054	0
3638.48	37.4029	93.4654	1.45054	0
3639.53	38.0207	93.4654	1.45054	0
3640.57	37.2587	93.4654	1.45054	0
3641.36	36.78	93.4655	1.45054	0
3642.4	37.0111	93.4655	1.45054	0
3643.45	36.456	93.4655	1.45054	0
3644.49	36.9359	93.4655	1.45054	0
3645.54	35.5541	93.4655	1.45054	0
3646.32	35.9891	93.4655	1.45054	0
3647.37	35.912	93.4655	1.45054	0
3648.42	34.969	93.4655	1.45054	0
3649.46	35.7106	93.4656	1.45054	0
3650.51	34.9529	93.4656	1.45054	0
3651.55	35.4248	93.4656	1.45054	0
3652.34	34.4635	93.4656	1.45054	0
3653.38	33.6861	93.4656	1.45054	0
3654.43	33.5694	93.4656	1.45054	0
3655.47	35.0533	93.4656	1.45054	0
3656.52	33.9202	93.4657	1.45054	0
3657.56	33.8495	93.4657	1.45054	0
3658.34	32.9021	93.4657	1.45054	0
3659.39	32.5071	93.4657	1.45054	0
3660.43	32.5754	93.4657	1.45054	0
3661.48	32.1333	93.4657	1.45054	0
3662.52	31.9912	93.4657	1.45054	0
3663.57	31.7613	93.4658	1.45054	0
3664.35	31.9092	93.4658	1.45054	0
3665.4	30.8882	93.4658	1.45054	0
3666.44	31.4129	93.4658	1.45054	0
3667.48	30.8849	93.4658	1.45054	0
3668.53	30.49	93.4658	1.45054	0
3669.57	30.5641	93.4658	1.45054	0
3670.35	29.8721	93.4658	1.45054	0
3671.4	28.7687	93.4659	1.45054	0
3672.44	30.3332	93.4659	1.45054	0
3673.49	29.5854	93.4659	1.45054	0
3674.53	27.9822	93.4659	1.45054	0
3675.31	28.7124	93.4659	1.45054	0
3676.36	27.9975	93.4659	1.45054	0
3677.4	27.9211	93.4659	1.45054	0
3678.44	27.7006	93.466	1.45054	0
3679.49	27.5977	93.466	1.45054	0
3680.53	27.699	93.466	1.45054	0
3681.31	27.5924	93.466	1.45054	0
3682.36	26.8253	93.466	1.45054	0
3683.4	26.9301	93.466	1.45054	0
3684.44	26.5166	93.466	1.45054	0
3685.48	25.4782	93.4661	1.45054	0
3686.53	26.7077	93.4661	1.45054	0
3687.31	26.834	93.4661	1.45054	0
3688.35	25.407	93.4661	1.45054	0
3689.4	24.9286	93.4661	1.45054	0
3690.44	25.5723	93.4661	1.45054	0
3691.48	24.4458	93.4661	1.45054	0
3692.52	25.0226	93.4661	1.45054	0
3693.57	25.0343	93.4662	1.45054	0
3694.35	24.3517	93.4662	1.45054	0
3695.39	23.7152	93.4662	1.45054	0
3696.43	24.8393	93.4662	1.45054	0
3697.47	23.8819	93.4662	1.45054	0
3698.52	23.6977	93.4662	1.45054	0
3699.56	23.3246	93.4662	1.45054	0
3700.34	22.8796	93.4663	1.45054	0
3701.38	24.0006	93.4663	1.45054	0
3702.42	22.5107	93.4663	1.45054	0
3703.46	22.1909	93.4663	1.45054	0
3704.51	21.6017	93.4663	1.45054	0
3705.55	22.7653	93.4663	1.45054	0
3706.33	21.8311	93.4663	1.45054	0
3707.37	22.989	93.4663	1.45053	0
3708.41	21.7309	93.4664	1.45053	0
3709.45	21.7537	93.4664	1.45053	0
3710.49	21.4523	93.4664	1.45053	0
3711.54	21.488	93.4664	1.45053	0
3712.32	20.5537	93.4664	1.45053	0
3713.36	20.9711	93.4664	1.45053	0
3714.4	21.0762	93.4664	1.45053	0
3715.44	20.4872	93.4665	1.45053	0
3716.48	20.0723	93.4665	1.45053	0
3717.52	19.6157	93.4665	1.45053	0
3718.3	21.5857	93.4665	1.45053	0
3719.34	20.1849	93.4665	1.45053	0
3720.38	19.9949	93.4665	1.45053	0
3721.42	19.1188	93.4665	1.45053	0
3722.46	19.4182	93.4666	1.45053	0
3723.5	19.9227	93.4666	1.45053	0
3724.54	19.0917	93.4666	1.45053	0
3725.32	19.0132	93.4666	1.45053	0
3726.36	17.9832	93.4666	1.45053	0
3727.4	18.5742	93.4666	1.45053	0
3728.44	18.7749	93.4666	1.45053	0
3729.48	18.7797	93.4667	1.45053	0
3730.52	19.234	93.4667	1.45053	0
3731.3	18.6019	93.4667	1.45053	0
3732.34	18.6707	93.4667	1.45053	0
3733.38	19.0263	93.4667	1.45053	0
3734.42	18.9729	93.4667	1.45053	0
3735.46	18.6678	93.4667	1.45053	0
3736.5	18.9448	93.4667	1.45053	0
3737.54	17.7029	93.4668	1.45053	0
3738.32	18.0183	93.4668	1.45053	0
3739.36	17.9071	93.4668	1.45053	0
3740.4	16.9863	93.4668	1.45053	0
3741.44	17.7618	93.4668	1.45053	0
3742.48	18.7516	93.4668	1.45053	0
3743.52	17.9524	93.4668	1.45053	0
3744.3	17.7732	93.4669	1.45053	0
3745.33	18.3208	93.4669	1.45053	0
3746.37	18.218	93.4669	1.45053	0
3747.41	17.9512	93.4669	1.45053	0
3748.45	17.1202	93.4669	1.45053	0
3749.49	17.2413	93.4669	1.45053	0
3750.53	17.2736	93.4669	1.45053	0
3751.31	17.7118	93.4669	1.45053	0
3752.34	17.1064	93.467	1.45053	0
3753.38	17.1165	93.467	1.45053	0
3754.42	16.2777	93.467	1.45053	0
3755.46	16.38	93.467	1.45053	0
3756.5	16.7445	93.467	1.45053	0
3757.53	16.7311	93.467	1.45053	0
3758.31	16.7681	93.467	1.45053	0
3759.35	16.2093	93.4671	1.45053	0
3760.39	16.4338	93.4671	1.45053	0
3761.43	17.4068	93.4671	1.45053	0
3762.46	17.8199	93.4671	1.45053	0
3763.5	17.1657	93.4671	1.45053	0
3764.54	17.5833	93.4671	1.45053	0
3765.32	17.8506	93.4671	1.45053	0
3766.35	16.5745	93.4672	1.45053	0
3767.39	16.8683	93.4672	1.45053	0
3768.43	17.2975	93.4672	1.45053	0
3769.47	16.2879	93.4672	1.45053	0
3770.5	16.9134	93.4672	1.45053	0
3771.28	16.4378	93.4672	1.45053	0
3772.32	17.1464	93.4672	1.45053	0
3773.35	16.7693	93.4672	1.45053	0
3774.39	16.8994	93.4673	1.45053	0
3775.43	16.484	93.4673	1.45053	0
3776.46	17.3398	93.4673	1.45053	0
3777.5	15.877	93.4673	1.45053	0
3778.28	15.9402	93.4673	1.45053	0
3779.31	17.2347	93.4673	1.45053	0
3780.35	17.4508	93.4673	1.45053	0
3781.39	16.6187	93.4674	1.45053	0
3782.42	16.6339	93.4674	1.45053	0
3783.46	16.5318	93.4674	1.45053	0
3784.5	17.7348	93.4674	1.45053	0
3785.53	17.2378	93.4674	1.45053	0
3786.31	17.3496	93.4674	1.45053	0
3787.34	17.0686	93.4674	1.45052	0
3788.38	17.1039	93.4675	1.45052	0
3789.42	17.5913	93.4675	1.45052	0
3790.45	17.814	93.4675	1.45052	0
3791.49	16.8455	93.4675	1.45052	0
3792.52	17.3729	93.4675	1.45052	0
3793.3	17.2166	93.4675	1.45052	0
3794.33	17.7954	93.4675	1.45052	0
3795.37	18.1142	93.4675	1.45052	0
3796.4	16.8602	93.4676	1.45052	0
3797.44	17.7211	93.4676	1.45052	0
3798.47	17.5194	93.4676	1.45052	0
3799.51	17.2136	93.4676	1.45052	0
3800.29	17.9202	93.4676	1.45052	0
3801.32	18.3258	93.4676	1.45052	0
3802.36	17.4817	93.4676	1.45052	0
3803.39	17.6553	93.4677	1.45052	0
3804.43	17.6019	93.4677	1.45052	0
3805.46	16.5821	93.4677	1.45052	0
3806.49	17.4309	93.4677	1.45052	0
3807.27	16.6384	93.4677	1.45052	0
3808.3	17.3643	93.4677	1.45052	0
3809.34	17.4176	93.4677	1.45052	0
3810.37	17.9373	93.4678	1.45052	0
3811.41	17.1783	93.4678	1.45052	0
3812.44	16.4828	93.4678	1.45052	0
3813.47	17.0268	93.4678	1.45052	0
3814.51	17.6534	93.4678	1.45052	0
3815.28	17.1034	93.4678	1.45052	0
3816.32	17.7093	93.4678	1.45052	0
3817.35	17.8937	93.4678	1.45052	0
3818.39	18.0114	93.4679	1.45052	0
3819.42	17.7643	93.4679	1.45052	0
3820.45	17.8249	93.4679	1.45052	0
3821.49	18.0979	93.4679	1.45052	0
3822.52	17.2243	93.4679	1.45052	0
3823.29	16.6365	93.4679	1.45052	0
3824.33	17.4833	93.4679	1.45052	0
3825.36	17.5817	93.468	1.45052	0
3826.39	17.844	93.468	1.45052	0
3827.43	18.372	93.468	1.45052	0
3828.46	17.8856	93.468	1.45052	0
3829.49	18.0836	93.468	1.45052	0
3830.27	17.6255	93.468	1.45052	0
3831.3	17.6082	93.468	1.45052	0
3832.33	17.6351	93.4681	1.45052	0
3833.36	17.611	93.4681	1.45052	0
3834.4	18.427	93.4681	1.45052	0
3835.43	17.289	93.4681	1.45052	0
3836.46	17.0811	93.4681	1.45052	0
3837.49	17.116	93.4681	1.45052	0
3838.27	17.7631	93.4681	1.45052	0
3839.3	18.1131	93.4681	1.45052	0
3840.33	17.9393	93.4682	1.45052	0
3841.36	18.0409	93.4682	1.45052	0
3842.4	17.4967	93.4682	1.45052	0
3843.43	17.367	93.4682	1.45052	0
3844.46	18.3808	93.4682	1.45052	0
3845.49	18.145	93.4682	1.45052	0
3846.26	18.3206	93.4682	1.45052	0
3847.3	17.6133	93.4683	1.45052	0
3848.33	17.3123	93.4683	1.45052	0
3849.36	17.2758	93.4683	1.45052	0
3850.39	17.5297	93.4683	1.45052	0
3851.42	18.6133	93.4683	1.45052	0
3852.45	17.2161	93.4683	1.45052	0
3853.48	18.3793	93.4683	1.45052	0
3854.26	17.0317	93.4683	1.45052	0
3855.29	17.1978	93.4684	1.45052	0
3856.32	18.6877	93.4684	1.45052	0
3857.35	17.5574	93.4684	1.45052	0
3858.38	17.559	93.4684	1.45052	0
3859.41	17.6943	93.4684	1.45052	0
3860.44	18.2542	93.4684	1.45052	0
3861.47	18.3827	93.4684	1.45052	0
3862.5	16.9064	93.4685	1.45052	0
3863.27	17.1266	93.4685	1.45052	0
3864.31	17.8861	93.4685	1.45052	0
3865.34	16.9226	93.4685	1.45052	0
3866.37	17.9978	93.4685	1.45052	0
3867.4	17.3675	93.4685	1.45052	0
3868.43	17.2295	93.4685	1.45052	0
3869.46	17.2167	93.4686	1.45052	0
3870.49	17.5846	93.4686	1.45052	0
3871.26	17.0908	93.4686	1.45052	0
3872.29	17.0969	93.4686	1.45051	0
3873.32	17.8286	93.4686	1.45051	0
3874.35	17.9268	93.4686	1.45051	0
3875.38	17.199	93.4686	1.45051	0
3876.41	16.4249	93.4687	1.45051	0
3877.43	17.2027	93.4687	1.45051	0
3878.46	17.7687	93.4687	1.45051	0
3879.49	16.5419	93.4687	1.45051	0
3880.26	17.1071	93.4687	1.45051	0
3881.29	16.1708	93.4687	1.45051	0
3882.32	17.0756	93.4687	1.45051	0
3883.35	18.5806	93.4687	1.45051	0
3884.38	18.1579	93.4688	1.45051	0
3885.41	18.1368	93.4688	1.45051	0
3886.44	17.0434	93.4688	1.45051	0
3887.47	17.67	93.4688	1.45051	0
3888.49	16.1379	93.4688	1.45051	0
3889.27	16.4703	93.4688	1.45051	0
3890.29	16.9455	93.4688	1.45051	0
3891.32	16.8465	93.4689	1.45051	0
3892.35	16.5752	93.4689	1.45051	0
3893.38	17.5852	93.4689	1.45051	0
3894.41	16.0609	93.4689	1.45051	0
3895.44	17.5132	93.4689	1.45051	0
3896.46	18.2891	93.4689	1.45051	0
3897.49	17.7436	93.4689	1.45051	0
3898.26	17.626	93.4689	1.45051	0
3899.29	17.089	93.469	1.45051	0
3900.32	16.5967	93.469	1.45051	0
3901.34	16.5985	93.469	1.45051	0
3902.37	17.2024	93.469	1.45051	0
3903.4	16.5776	93.469	1.45051	0
3904.43	16.6778	93.469	1.45051	0
3905.45	16.2501	93.469	1.45051	0
3906.48	16.661	93.4691	1.45051	0
3907.25	16.7533	93.4691	1.45051	0
3908.28	16.1564	93.4691	1.45051	0
3909.31	17.5723	93.4691	1.45051	0
3910.33	17.1914	93.4691	1.45051	0
3911.36	17.4043	93.4691	1.45051	0
3912.39	16.4685	93.4691	1.45051	0
3913.41	15.4184	93.4692	1.45051	0
3914.44	15.8989	93.4692	1.45051	0
3915.47	15.4452	93.4692	1.45051	0
3916.24	15.8803	93.4692	1.45051	0
3917.26	17.2678	93.4692	1.45051	0
3918.29	16.7473	93.4692	1.45051	0
3919.31	16.8082	93.4692	1.45051	0
3920.34	16.7487	93.4692	1.45051	0
3921.37	16.8618	93.4693	1.45051	0
3922.39	16.8341	93.4693	1.45051	0
3923.42	16.569	93.4693	1.45051	0
3924.44	16.8395	93.4693	1.45051	0
3925.47	16.5987	93.4693	1.45051	0
3926.24	16.2318	93.4693	1.45051	0
3927.27	15.2909	93.4693	1.45051	0
3928.29	16.3245	93.4694	1.45051	0
3929.32	16.5693	93.4694	1.45051	0
3930.34	16.8201	93.4694	1.45051	0
3931.37	16.1098	93.4694	1.45051	0
3932.39	15.6065	93.4694	1.45051	0
3933.42	15.8339	93.4694	1.45051	0
3934.44	15.6962	93.4694	1.45051	0
3935.47	15.6166	93.4694	1.45051	0
3936.24	14.9917	93.4695	1.45051	0
3937.26	15.5539	93.4695	1.45051	0
3938.29	16.4703	93.4695	1.45051	0
3939.31	15.1339	93.4695	1.45051	0
3940.34	17.1625	93.4695	1.45051	0
3941.36	16.0777	93.4695	1.45051	0
3942.38	16.4499	93.4695	1.45051	0
3943.41	16.0482	93.4696	1.45051	0
3944.43	15.3358	93.4696	1.45051	0
3945.46	15.2575	93.4696	1.45051	0
3946.23	15.2459	93.4696	1.45051	0
3947.25	15.8327	93.4696	1.45051	0
3948.27	15.8261	93.4696	1.45051	0
3949.3	15.1884	93.4696	1.45051	0
3950.32	15.7434	93.4696	1.45051	0
3951.35	15.6919	93.4697	1.45051	0
3952.37	16.2595	93.4697	1.45051	0
3953.39	14.5413	93.4697	1.45051	0
3954.42	15.3436	93.4697	1.45051	0
3955.44	15.8911	93.4697	1.45051	0
3956.46	14.871	93.4697	1.45051	0
3957.23	14.278	93.4697	1.45051	0
3958.25	14.464	93.4698	1.45051	0
3959.28	15.7351	93.4698	1.45051	0
3960.3	14.9983	93.4698	1.45051	0
3961.32	15.4295	93.4698	1.45051	0
3962.35	15.7244	93.4698	1.45051	0
3963.37	14.6284	93.4698	1.4505	0
3964.39	14.7307	93.4698	1.4505	0
3965.42	16.1948	93.4699	1.4505	0
3966.44	14.1613	93.4699	1.4505	0
3967.46	15.1474	93.4699	1.4505	0
3968.23	14.8059	93.4699	1.4505	0
3969.25	15.1719	93.4699	1.4505	0
3970.27	14.1791	93.4699	1.4505	0
3971.29	14.0185	93.4699	1.4505	0
3972.32	14.1784	93.4699	1.4505	0
3973.34	13.8914	93.47	1.4505	0
3974.36	14.6685	93.47	1.4505	0
3975.38	14.4629	93.47	1.4505	0
3976.4	14.3519	93.47	1.4505	0
3977.43	13.6783	93.47	1.4505	0
3978.45	13.9089	93.47	1.4505	0
3979.21	13.7523	93.47	1.4505	0
3980.24	14.8707	93.4701	1.4505	0
3981.26	14.8523	93.4701	1.4505	0
3982.28	14.5147	93.4701	1.4505	0
3983.3	13.9844	93.4701	1.4505	0
3984.32	14.0693	93.4701	1.4505	0
3985.34	15.2896	93.4701	1.4505	0
3986.36	14.7072	93.4701	1.4505	0
3987.39	13.8155	93.4701	1.4505	0
3988.41	14.1344	93.4702	1.4505	0
3989.43	14.0509	93.4702	1.4505	0
3990.45	13.3776	93.4702	1.4505	0
3991.21	12.7867	93.4702	1.4505	0
3992.23	13.199	93.4702	1.4505	0
3993.26	12.9972	93.4702	1.4505	0
3994.28	13.6033	93.4702	1.4505	0
3995.3	13.438	93.4703	1.4505	0
3996.32	14.2688	93.4703	1.4505	0
3997.34	13.1077	93.4703	1.4505	0
3998.36	11.8049	93.4703	1.4505	0
3999.38	13.0049	93.4703	1.4505	0
4000.4	13.0936	93.4703	1.4505	0
4001.42	13.5898	93.4703	1.4505	0
4002.44	12.3513	93.4703	1.4505	0
4003.46	11.9799	93.4704	1.4505	0
4004.22	11.7524	93.4704	1.4505	0
4005.24	11.8242	93.4704	1.4505	0
4006.26	13.3779	93.4704	1.4505	0
4007.28	12.2406	93.4704	1.4505	0
4008.3	10.7321	93.4704	1.4505	0
4009.32	11.5799	93.4704	1.4505	0
4010.34	11.8948	93.4705	1.4505	0
4011.36	12.557	93.4705	1.4505	0
4012.38	11.8028	93.4705	1.4505	0
4013.4	10.9161	93.4705	1.4505	0
4014.42	12.383	93.4705	1.4505	0
4015.44	11.5483	93.4705	1.4505	0
4016.45	12.4629	93.4705	1.4505	0
4017.22	11.7889	93.4705	1.4505	0
4018.24	11.8943	93.4706	1.4505	0
4019.26	11.2958	93.4706	1.4505	0
4020.27	10.7156	93.4706	1.4505	0
4021.29	12.6357	93.4706	1.4505	0
4022.31	11.2959	93.4706	1.4505	0
4023.33	11.0483	93.4706	1.4505	0
4024.35	10.8647	93.4706	1.4505	0
4025.37	10.6414	93.4707	1.4505	0
4026.38	10.9112	93.4707	1.4505	0
4027.4	10.1228	93.4707	1.4505	0
4028.42	10.0066	93.4707	1.4505	0
4029.44	10.3462	93.4707	1.4505	0
4030.2	11.2026	93.4707	1.4505	0
4031.22	10.3106	93.4707	1.4505	0
4032.24	10.8315	93.4707	1.4505	0
4033.25	11.205	93.4708	1.4505	0
4034.27	10.0575	93.4708	1.4505	0
4035.29	9.99238	93.4708	1.4505	0
4036.31	10.068	93.4708	1.4505	0
4037.32	10.0417	93.4708	1.4505	0
4038.34	9.26877	93.4708	1.4505	0
4039.36	9.99403	93.4708	1.4505	0
4040.38	10.5679	93.4709	1.4505	0
4041.39	9.23115	93.4709	1.4505	0
4042.41	9.54795	93.4709	1.4505	0
4043.43	8.37903	93.4709	1.4505	0
4044.44	8.2677	93.4709	1.4505	0
4045.2	9.47593	93.4709	1.4505	0
4046.22	7.91736	93.4709	1.4505	0
4047.24	10.0681	93.4709	1.4505	0
4048.25	8.99215	93.471	1.4505	0
4049.27	10.0538	93.471	1.4505	0
4050.29	8.54055	93.471	1.4505	0
4051.3	8.26335	93.471	1.4505	0
4052.32	8.92559	93.471	1.4505	0
4053.34	8.79073	93.471	1.4505	0
4054.35	8.58007	93.471	1.4505	0
4055.37	8.00515	93.4711	1.4505	0
4056.38	9.71749	93.4711	1.4505	0
4057.4	8.44896	93.4711	1.4505	0
4058.41	8.51741	93.4711	1.4505	0
4059.43	8.7647	93.4711	1.4505	0
4060.19	7.73931	93.4711	1.4505	0
4061.21	7.43311	93.4711	1.45049	0
4062.22	7.68311	93.4711	1.45049	0
4063.24	7.33354	93.4712	1.45049	0
4064.25	7.00953	93.4712	1.45049	0
4065.27	7.3867	93.4712	1.45049	0
4066.28	6.46578	93.4712	1.45049	0
4067.3	6.2116	93.4712	1.45049	0
4068.31	7.67167	93.4712	1.45049	0
4069.33	8.0096	93.4712	1.45049	0
4070.34	7.01463	93.4713	1.45049	0
4071.36	5.43764	93.4713	1.45049	0
4072.37	6.08356	93.4713	1.45049	0
4073.39	5.53781	93.4713	1.45049	0
4074.4	6.37947	93.4713	1.45049	0
4075.41	7.37223	93.4713	1.45049	0
4076.43	5.31862	93.4713	1.45049	0
4077.19	6.6997	93.4713	1.45049	0
4078.2	6.56469	93.4714	1.45049	0
4079.22	5.7962	93.4714	1.45049	0
4080.23	6.99792	93.4714	1.45049	0
4081.24	5.50786	93.4714	1.45049	0
4082.26	5.42889	93.4714	1.45049	0
4083.27	4.65022	93.4714	1.45049	0
4084.29	6.65668	93.4714	1.45049	0
4085.3	5.37165	93.4714	1.45049	0
4086.31	6.66167	93.4715	1.45049	0
4087.33	5.44368	93.4715	1.45049	0
4088.34	5.91678	93.4715	1.45049	0
4089.35	4.62589	93.4715	1.45049	0
4090.37	5.01435	93.4715	1.45049	0
4091.38	5.53272	93.4715	1.45049	0
4092.39	5.49327	93.4715	1.45049	0
4093.4	4.65659	93.4716	1.45049	0
4094.42	5.67935	93.4716	1.45049	0
4095.18	5.57912	93.4716	1.45049	0
4096.19	4.9591	93.4716	1.45049	0
4097.2	5.07058	93.4716	1.45049	0
4098.21	4.93415	93.4716	1.45049	0
4099.23	4.7828	93.4716	1.45049	0
4100.24	4.80447	93.4716	1.45049	0
4101.25	5.12858	93.4717	1.45049	0
4102.26	3.97455	93.4717	1.45049	0
4103.28	6.38327	93.4717	1.45049	0
4104.29	3.79687	93.4717	1.45049	0
4105.3	5.62327	93.4717	1.45049	0
4106.31	5.10688	93.4717	1.45049	0
4107.32	3.90917	93.4717	1.45049	0
4108.34	4.13352	93.4718	1.45049	0
4109.35	4.56253	93.4718	1.45049	0
4110.36	4.77669	93.4718	1.45049	0
4111.37	4.96089	93.4718	1.45049	0
4112.38	3.86229	93.4718	1.45049	0
4113.39	3.80152	93.4718	1.45049	0
4114.4	4.83056	93.4718	1.45049	0
4115.42	4.41754	93.4718	1.45049	0
4116.17	4.07463	93.4719	1.45049	0
4117.18	2.29823	93.4719	1.45049	0
4118.2	4.80416	93.4719	1.45049	0
4119.21	3.8538	93.4719	1.45049	0
4120.22	4.39149	93.4719	1.45049	0
4121.23	4.40622	93.4719	1.45049	0
4122.24	5.11906	93.4719	1.45049	0
4123.25	4.13102	93.4719	1.45049	0
4124.26	4.9606	93.472	1.45049	0
4125.27	3.93625	93.472	1.45049	0
4126.28	3.87491	93.472	1.45049	0
4127.29	3.54178	93.472	1.45049	0
4128.3	4.20341	93.472	1.45049	0
4129.31	4.28929	93.472	1.45049	0
4130.32	4.65775	93.472	1.45049	0
4131.33	3.21881	93.4721	1.45049	0
4132.34	3.25509	93.4721	1.45049	0
4133.35	3.18128	93.4721	1.45049	0
4134.36	3.54704	93.4721	1.45049	0
4135.37	3.73343	93.4721	1.45049	0
4136.38	4.41995	93.4721	1.45049	0
4137.39	3.97534	93.4721	1.45049	0
4138.4	2.08142	93.4721	1.45049	0
4139.41	4.23726	93.4722	1.45049	0
4140.16	3.129	93.4722	1.45049	0
4141.17	3.83971	93.4722	1.45049	0
4142.18	3.36368	93.4722	1.45049	0
4143.19	2.16027	93.4722	1.45049	0
4144.2	3.42602	93.4722	1.45049	0
4145.21	3.04744	93.4722	1.45049	0
4146.22	3.01914	93.4722	1.45049	0
4147.22	3.12561	93.4723	1.45049	0
4148.23	4.11777	93.4723	1.45049	0
4149.24	2.11621	93.4723	1.45049	0
4150.25	1.75047	93.4723	1.45049	0
4151.26	3.50737	93.4723	1.45049	0
4152.27	2.84188	93.4723	1.45049	0
4153.27	3.13538	93.4723	1.45049	0
4154.28	1.55895	93.4724	1.45049	0
4155.29	2.65125	93.4724	1.45049	0
4156.3	3.86386	93.4724	1.45049	0
4157.31	3.64774	93.4724	1.45049	0
4158.31	4.36861	93.4724	1.45049	0
4159.32	3.89253	93.4724	1.45049	0
4160.33	2.20332	93.4724	1.45049	0
4161.34	3.18856	93.4724	1.45049	0
4162.34	1.52688	93.4725	1.45049	0
4163.35	1.14458	93.4725	1.45049	0
4164.36	1.80133	93.4725	1.45049	0
4165.37	1.12427	93.4725	1.45049	0
4166.37	2.93784	93.4725	1.45048	0
4167.38	2.98092	93.4725	1.45048	0
4168.39	2.73193	93.4725	1.45048	0
4169.39	2.65069	93.4726	1.45048	0
4170.4	2.18097	93.4726	1.45048	0
4171.16	2.64262	93.4726	1.45048	0
4172.16	2.45043	93.4726	1.45048	0
4173.17	2.74601	93.4726	1.45048	0
4174.18	3.51488	93.4726	1.45048	0
4175.18	2.47938	93.4726	1.45048	0
4176.19	2.49408	93.4726	1.45048	0
4177.19	1.62242	93.4727	1.45048	0
4178.2	2.35694	93.4727	1.45048	0
4179.21	2.27881	93.4727	1.45048	0
4180.21	1.69438	93.4727	1.45048	0
4181.22	2.08635	93.4727	1.45048	0
4182.22	3.45392	93.4727	1.45048	0
4183.23	1.98994	93.4727	1.45048	0
4184.23	1.53167	93.4727	1.45048	0
4185.24	2.62247	93.4728	1.45048	0
4186.25	2.80231	93.4728	1.45048	0
4187.25	2.06254	93.4728	1.45048	0
4188.26	1.8541	93.4728	1.45048	0
4189.26	2.21411	93.4728	1.45048	0
4190.27	2.16223	93.4728	1.45048	0
4191.27	2.28572	93.4728	1.45048	0
4192.28	2.01147	93.4728	1.45048	0
4193.28	2.54903	93.4729	1.45048	0
4194.29	2.95872	93.4729	1.45048	0
4195.29	2.31732	93.4729	1.45048	0
4196.3	1.63849	93.4729	1.45048	0
4197.3	2.93888	93.4729	1.45048	0
4198.31	1.58866	93.4729	1.45048	0
4199.31	1.39648	93.4729	1.45048	0
4200.31	1.04396	93.473	1.45048	0
4201.32	3.17925	93.473	1.45048	0
4202.32	2.06335	93.473	1.45048	0
4203.33	1.4338	93.473	1.45048	0
4204.33	0.74911	93.473	1.45048	0
4205.33	2.10514	93.473	1.45048	0
4206.34	2.57401	93.473	1.45048	0
4207.34	0.42148	93.473	1.45048	0
4208.35	0.34943	93.4731	1.45048	0
4209.35	1.40924	93.4731	1.45048	0
4210.35	0.7157	93.4731	1.45048	0
4211.36	1.23418	93.4731	1.45048	0
4212.36	1.27579	93.4731	1.45048	0
4213.36	0.75089	93.4731	1.45048	0
4214.37	2.76643	93.4731	1.45048	0
4215.37	2.21286	93.4731	1.45048	0
4216.37	2.46616	93.4732	1.45048	0
4217.37	1.88106	93.4732	1.45048	0
4218.38	2.00545	93.4732	1.45048	0
4219.38	2.11337	93.4732	1.45048	0
4220.38	1.46819	93.4732	1.45048	0
4221.13	1.85767	93.4732	1.45048	0
4222.14	2.4519	93.4732	1.45048	0
4223.14	1.3719	93.4732	1.45048	0
4224.14	1.83933	93.4733	1.45048	0
4225.14	0.43158	93.4733	1.45048	0
4226.15	0.05547	93.4733	1.45048	0
4227.15	1.32671	93.4733	1.45048	0
4228.15	1.41919	93.4733	1.45048	0
4229.15	1.45791	93.4733	1.45048	0
4230.15	2.11571	93.4733	1.45048	0
4231.16	1.70699	93.4733	1.45048	0
4232.16	1.58366	93.4734	1.45048	0
4233.16	0.57585	93.4734	1.45048	0
4234.16	2.37098	93.4734	1.45048	0
4235.16	1.66187	93.4734	1.45048	0
4236.16	1.59817	93.4734	1.45048	0
4237.17	1.46178	93.4734	1.45048	0
4238.17	2.28804	93.4734	1.45048	0
4239.17	1.66909	93.4734	1.45048	0
4240.17	2.45284	93.4735	1.45048	0
4241.17	2.3887	93.4735	1.45048	0
4242.17	1.88963	93.4735	1.45048	0
4243.17	1.8963	93.4735	1.45048	0
4244.17	1.28042	93.4735	1.45048	0
4245.17	2.05741	93.4735	1.45048	0
4246.17	2.14225	93.4735	1.45048	0
4247.17	0.86998	93.4736	1.45048	0
4248.17	2.20317	93.4736	1.45048	0
4249.17	1.81939	93.4736	1.45048	0
4250.17	1.12499	93.4736	1.45048	0
4251.17	0.3646	93.4736	1.45048	0
4252.17	1.90101	93.4736	1.45048	0
4253.17	2.00013	93.4736	1.45048	0
4254.17	0.06847	93.4736	1.45048	0
4255.17	2.01109	93.4737	1.45048	0
4256.17	0.23524	93.4737	1.45048	0
4257.17	2.17141	93.4737	1.45048	0
4258.17	2.11745	93.4737	1.45048	0
4259.17	2.61631	93.4737	1.45048	0
4260.17	1.86559	93.4737	1.45048	0
4261.17	2.44274	93.4737	1.45048	0
4262.17	1.46224	93.4737	1.45048	0
4263.17	2.45029	93.4738	1.45048	0
4264.17	0.25208	93.4738	1.45048	0
4265.17	2.40921	93.4738	1.45048	0
4266.17	1.93978	93.4738	1.45048	0
4267.17	2.0001	93.4738	1.45048	0
4268.16	0.85018	93.4738	1.45048	0
4269.16	1.91819	93.4738	1.45048	0
4270.16	1.88873	93.4738	1.45048	0
4271.16	0.72942	93.4739	1.45048	0
4272.16	0.49908	93.4739	1.45048	0
4273.16	2.177	93.4739	1.45048	0
4274.16	1.69919	93.4739	1.45048	0
4275.15	1.95437	93.4739	1.45048	0
4276.15	2.02436	93.4739	1.45048	0
4277.15	2.26619	93.4739	1.45048	0
4278.15	1.88518	93.4739	1.45048	0
4279.14	1.45061	93.474	1.45048	0
4280.14	0.00606	93.474	1.45048	0
4281.14	1.65976	93.474	1.45047	0
4282.14	2.04413	93.474	1.45047	0
4283.14	1.87262	93.474	1.45047	0
4284.13	1.45881	93.474	1.45047	0
4285.13	0.30135	93.474	1.45047	0
4286.13	1.61811	93.474	1.45047	0
4287.12	1.74098	93.4741	1.45047	0
4288.12	0.59993	93.4741	1.45047	0
4289.12	0.45653	93.4741	1.45047	0
4290.12	1.00839	93.4741	1.45047	0
4291.11	1.11757	93.4741	1.45047	0
4292.36	1.67737	93.4741	1.45047	0
4293.35	1.79043	93.4741	1.45047	0
4294.35	1.37328	93.4742	1.45047	0
4295.35	0.77418	93.4742	1.45047	0
4296.34	1.52905	93.4742	1.45047	0
4297.34	1.70805	93.4742	1.45047	0
4298.34	1.0944	93.4742	1.45047	0
4299.33	1.26327	93.4742	1.45047	0
4300.33	1.75575	93.4742	1.45047	0
4301.32	2.47512	93.4742	1.45047	0
4302.32	1.72052	93.4743	1.45047	0
4303.32	0.8661	93.4743	1.45047	0
4304.31	1.82765	93.4743	1.45047	0
4305.31	0.99009	93.4743	1.45047	0
4306.3	0.3477	93.4743	1.45047	0
4307.3	1.27188	93.4743	1.45047	0
4308.29	0.85361	93.4743	1.45047	0
4309.29	1.61679	93.4743	1.45047	0
4310.28	0.94041	93.4744	1.45047	0
4311.28	1.52419	93.4744	1.45047	0
4312.27	1.40434	93.4744	1.45047	0
4313.27	0.83503	93.4744	1.45047	0
4314.26	0.87101	93.4744	1.45047	0
4315.26	1.17848	93.4744	1.45047	0
4316.25	0.79909	93.4744	1.45047	0
4317.25	0.20431	93.4744	1.45047	0
4318.24	0.04501	93.4745	1.45047	0
4319.24	0.15467	93.4745	1.45047	0
4320.23	0.59722	93.4745	1.45047	0
4321.23	1.57625	93.4745	1.45047	0
4322.22	1.20655	93.4745	1.45047	0
4323.21	0.18049	93.4745	1.45047	0
4324.21	0.86397	93.4745	1.45047	0
4325.2	0.46844	93.4745	1.45047	0
4326.2	1.28272	93.4746	1.45047	0
4327.19	0.03525	93.4746	1.45047	0
4328.18	0.1724	93.4746	1.45047	0
4329.18	0.44414	93.4746	1.45047	0
4330.17	0.4375	93.4746	1.45047	0
4331.16	0.77203	93.4746	1.45047	0
4332.16	0.22934	93.4746	1.45047	0
4333.15	1.06448	93.4746	1.45047	0
4334.14	0.67172	93.4747	1.45047	0
4335.14	1.02223	93.4747	1.45047	0
4336.13	0.21788	93.4747	1.45047	0
4337.12	0.0929	93.4747	1.45047	0
4338.12	0.07562	93.4747	1.45047	0
4339.11	0.03921	93.4747	1.45047	0
4340.1	0.48878	93.4747	1.45047	0
4341.34	0.52856	93.4747	1.45047	0
4342.33	0.96623	93.4748	1.45047	0
4343.33	0.56243	93.4748	1.45047	0
4344.32	1.03667	93.4748	1.45047	0
4345.31	0.24762	93.4748	1.45047	0
4346.3	0.26568	93.4748	1.45047	0
4347.3	2.15705	93.4748	1.45047	0
4348.29	0.2925	93.4748	1.45047	0
4349.28	0.31658	93.4748	1.45047	0
4350.27	0.25062	93.4749	1.45047	0
4351.26	0.05428	93.4749	1.45047	0
4352.25	0.34124	93.4749	1.45047	0
4353.25	0.18597	93.4749	1.45047	0
4354.24	0.06889	93.4749	1.45047	0
4355.23	0.075	93.4749	1.45047	0
4356.22	0.57622	93.4749	1.45047	0
4357.21	0.21425	93.4749	1.45047	0
4358.2	0.87618	93.4749	1.45047	0
4359.19	0.66861	93.475	1.45047	0
4360.18	1.27333	93.475	1.45047	0
4361.17	0.89295	93.475	1.45047	0
4362.17	0.46001	93.475	1.45047	0
4363.16	0.9982	93.475	1.45047	0
4364.15	0.10242	93.475	1.45047	0
4365.14	0.99447	93.475	1.45047	0
4366.13	0.08283	93.475	1.45047	0
4367.12	1.27737	93.4751	1.45047	0
4368.11	0.19833	93.4751	1.45047	0
4369.1	1.14764	93.4751	1.45047	0
4370.09	0.34779	93.4751	1.45047	0
4371.33	0.16077	93.4751	1.45047	0
4372.32	0.35084	93.4751	1.45047	0
4373.31	0.37597	93.4751	1.45047	0
4374.3	0.42469	93.4751	1.45047	0
4375.29	1.24635	93.4752	1.45047	0
4376.27	0.29267	93.4752	1.45047	0
4377.26	0.10651	93.4752	1.45047	0
4378.25	0.07973	93.4752	1.45047	0
4379.24	0.93448	93.4752	1.45047	0
4380.23	0.02542	93.4752	1.45047	0
4381.22	0.42632	93.4752	1.45047	0
4382.21	0.81842	93.4752	1.45047	0
4383.2	0.85201	93.4753	1.45047	0
4384.19	0.05874	93.4753	1.45047	0
4385.18	0.39825	93.4753	1.45047	0
4386.17	0.33018	93.4753	1.45047	0
4387.15	0.26739	93.4753	1.45047	0
4388.14	0.38845	93.4753	1.45047	0
4389.13	0.03927	93.4753	1.45047	0
4390.12	1.05815	93.4753	1.45047	0
4391.11	0.1795	93.4754	1.45047	0
4392.1	0.95749	93.4754	1.45047	0
4393.08	0.26368	93.4754	1.45047	0
4394.32	0.557	93.4754	1.45047	0
4395.31	0.64256	93.4754	1.45047	0
4396.3	0.55216	93.4754	1.45047	0
4397.28	0.48251	93.4754	1.45047	0
4398.27	0.33793	93.4754	1.45047	0
4399.26	0.34418	93.4755	1.45047	0
4400.25	0.49318	93.4755	1.45047	0
4401.23	0.06203	93.4755	1.45047	0
4402.22	0.45797	93.4755	1.45047	0
4403.21	0.35058	93.4755	1.45047	0
4404.19	1.12911	93.4755	1.45047	0
4405.18	0.08699	93.4755	1.45046	0
4406.17	0.54762	93.4755	1.45046	0
4407.16	0.34717	93.4756	1.45046	0
4408.14	0.37007	93.4756	1.45046	0
4409.13	0.75184	93.4756	1.45046	0
4410.12	0.91017	93.4756	1.45046	0
4411.1	0.92077	93.4756	1.45046	0
4412.09	0.21103	93.4756	1.45046	0
4413.08	0.57424	93.4756	1.45046	0
4414.31	0.21176	93.4756	1.45046	0
4415.29	0.00048745	93.4757	1.45046	0
4416.28	0.83963	93.4757	1.45046	0
4417.27	0.01564	93.4757	1.45046	0
4418.25	0.25244	93.4757	1.45046	0
4419.24	0.06413	93.4757	1.45046	0
4420.22	0.21492	93.4757	1.45046	0
4421.21	0.79929	93.4757	1.45046	0
4422.19	0.00267	93.4757	1.45046	0
4423.18	0.38212	93.4758	1.45046	0
4424.17	0.36745	93.4758	1.45046	0
4425.15	0.65703	93.4758	1.45046	0
4426.14	0.17906	93.4758	1.45046	0
4427.12	0.15285	93.4758	1.45046	0
4428.11	0.08167	93.4758	1.45046	0
4429.09	0.612	93.4758	1.45046	0
4430.08	0.05378	93.4758	1.45046	0
4431.31	0.23219	93.4758	1.45046	0
4432.29	0.5847	93.4759	1.45046	0
4433.28	0.22025	93.4759	1.45046	0
4434.26	0.36615	93.4759	1.45046	0
4435.25	1.17979	93.4759	1.45046	0
4436.23	0.44301	93.4759	1.45046	0
4437.21	0.43596	93.4759	1.45046	0
4438.2	0.75229	93.4759	1.45046	0
4439.18	0.20096	93.4759	1.45046	0
4440.17	0.47111	93.476	1.45046	0
4441.15	0.23825	93.476	1.45046	0
4442.13	0.75369	93.476	1.45046	0
4443.12	0.28411	93.476	1.45046	0
4444.1	0.37704	93.476	1.45046	0
4445.09	0.14086	93.476	1.45046	0
4446.07	0.11409	93.476	1.45046	0
4447.3	0.57553	93.476	1.45046	0
4448.28	0.51742	93.4761	1.45046	0
4449.26	0.016	93.4761	1.45046	0
4450.25	0.23258	93.4761	1.45046	0
4451.23	0.36535	93.4761	1.45046	0
4452.21	1.00824	93.4761	1.45046	0
4453.2	0.10104	93.4761	1.45046	0
4454.18	0.21975	93.4761	1.45046	0
4455.16	0.04645	93.4761	1.45046	0
4456.14	0.74866	93.4762	1.45046	0
4457.13	0.05671	93.4762	1.45046	0
4458.11	0.48589	93.4762	1.45046	0
4459.09	0.49572	93.4762	1.45046	0
4460.07	1.26827	93.4762	1.45046	0
4461.3	0.37425	93.4762	1.45046	0
4462.28	1.06902	93.4762	1.45046	0
4463.27	0.06206	93.4762	1.45046	0
4464.25	0.32509	93.4762	1.45046	0
4465.23	0.83418	93.4763	1.45046	0
4466.21	0.31173	93.4763	1.45046	0
4467.19	0.70198	93.4763	1.45046	0
4468.17	0.40569	93.4763	1.45046	0
4469.16	0.23925	93.4763	1.45046	0
4470.14	0.53405	93.4763	1.45046	0
4471.12	1.14338	93.4763	1.45046	0
4472.1	1.12829	93.4763	1.45046	0
4473.08	0.03276	93.4764	1.45046	0
4474.06	0.2275	93.4764	1.45046	0
4475.29	1.38283	93.4764	1.45046	0
4476.27	1.54078	93.4764	1.45046	0
4477.25	0.51045	93.4764	1.45046	0
4478.23	0.91266	93.4764	1.45046	0
4479.21	1.10999	93.4764	1.45046	0
4480.19	0.43213	93.4764	1.45046	0
4481.17	0.78176	93.4765	1.45046	0
4482.15	0.55254	93.4765	1.45046	0
4483.13	0.15949	93.4765	1.45046	0
4484.11	0.06832	93.4765	1.45046	0
4485.09	0.57235	93.4765	1.45046	0
4486.07	0.1535	93.4765	1.45046	0
4487.05	0.41054	93.4765	1.45046	0
4488.28	1.21732	93.4765	1.45046	0
4489.26	0.7794	93.4765	1.45046	0
4490.24	0.78461	93.4766	1.45046	0
4491.21	1.48234	93.4766	1.45046	0
4492.19	0.6606	93.4766	1.45046	0
4493.17	0.89788	93.4766	1.45046	0
4494.15	0.0558	93.4766	1.45046	0
4495.13	1.10902	93.4766	1.45046	0
4496.11	0.26418	93.4766	1.45046	0
4497.09	0.57796	93.4766	1.45046	0
4498.07	0.13591	93.4767	1.45046	0
4499.05	0.60951	93.4767	1.45046	0
4500.27	0.00909	93.4767	1.45046	0
4501.25	0.55789	93.4767	1.45046	0
4502.23	0.69658	93.4767	1.45046	0
4503.21	0.98407	93.4767	1.45046	0
4504.18	0.56021	93.4767	1.45046	0
4505.16	0.47324	93.4767	1.45046	0
4506.14	0.38215	93.4768	1.45046	0
4507.12	0.34799	93.4768	1.45046	0
4508.1	0.82424	93.4768	1.45046	0
4509.07	0.04435	93.4768	1.45046	0
4510.05	0.02261	93.4768	1.45046	0
4511.27	0.40687	93.4768	1.45046	0
4512.25	0.38362	93.4768	1.45046	0
4513.23	0.23654	93.4768	1.45046	0
4514.21	0.41063	93.4768	1.45046	0
4515.18	0.27314	93.4769	1.45046	0
4516.16	0.30876	93.4769	1.45046	0
4517.14	0.45893	93.4769	1.45046	0
4518.12	0.46125	93.4769	1.45046	0
4519.09	0.36312	93.4769	1.45046	0
4520.07	0.29833	93.4769	1.45046	0
4521.05	0.30811	93.4769	1.45046	0
4522.27	1.12722	93.4769	1.45046	0
4523.24	0.70721	93.477	1.45046	0
4524.22	0.000821816	93.477	1.45046	0
4525.2	0.6706	93.477	1.45046	0
4526.17	0.48292	93.477	1.45046	0
4527.15	0.76484	93.477	1.45046	0
4528.13	0.0699	93.477	1.45046	0
4529.1	0.6956	93.477	1.45046	0
4530.08	0.05236	93.477	1.45046	0
4531.05	0.03856	93.477	1.45046	0
4532.27	0.16491	93.4771	1.45046	0
4533.25	0.16614	93.4771	1.45046	0
4534.22	0.06192	93.4771	1.45046	0
4535.2	0.5864	93.4771	1.45046	0
4536.18	0.26211	93.4771	1.45046	0
4537.15	0.42962	93.4771	1.45046	0
4538.13	0.36846	93.4771	1.45046	0
4539.1	0.37783	93.4771	1.45046	0
4540.08	0.08775	93.4772	1.45045	0
4541.05	0.0494	93.4772	1.45045	0
4542.27	0.8808	93.4772	1.45045	0
4543.24	0.14552	93.4772	1.45045	0
4544.22	1.03871	93.4772	1.45045	0
4545.19	1.00002	93.4772	1.45045	0
4546.17	0.47611	93.4772	1.45045	0
4547.14	0.71333	93.4772	1.45045	0
4548.12	0.19251	93.4772	1.45045	0
4549.09	0.65866	93.4773	1.45045	0
4550.07	0.4936	93.4773	1.45045	0
4551.04	0.25824	93.4773	1.45045	0
4552.26	1.06585	93.4773	1.45045	0
4553.23	0.08536	93.4773	1.45045	0
4554.2	0.30512	93.4773	1.45045	0
4555.18	0.60767	93.4773	1.45045	0
4556.15	0.20217	93.4773	1.45045	0
4557.13	0.24408	93.4774	1.45045	0
4558.1	0.78625	93.4774	1.45045	0
4559.07	0.03334	93.4774	1.45045	0
4560.05	0.41987	93.4774	1.45045	0
4561.26	0.53327	93.4774	1.45045	0
4562.23	0.24293	93.4774	1.45045	0
4563.21	0.44434	93.4774	1.45045	0
4564.18	0.01897	93.4774	1.45045	0
4565.15	0.59367	93.4774	1.45045	0
4566.13	0.15304	93.4775	1.45045	0
4567.1	0.3517	93.4775	1.45045	0
4568.07	0.32968	93.4775	1.45045	0
4569.04	0.09175	93.4775	1.45045	0
4570.26	0.42172	93.4775	1.45045	0
4571.23	0.17492	93.4775	1.45045	0
4572.2	0.39223	93.4775	1.45045	0
4573.18	0.18282	93.4775	1.45045	0
4574.15	0.85603	93.4776	1.45045	0
4575.12	0.40991	93.4776	1.45045	0
4576.09	0.57574	93.4776	1.45045	0
4577.06	0.89338	93.4776	1.45045	0
4578.03	0.69813	93.4776	1.45045	0
4579.25	0.01322	93.4776	1.45045	0
4580.22	0.20488	93.4776	1.45045	0
4581.19	0.37443	93.4776	1.45045	0
4582.16	0.54105	93.4776	1.45045	0
4583.13	0.08242	93.4777	1.45045	0
4584.1	0.53912	93.4777	1.45045	0
4585.08	0.18544	93.4777	1.45045	0
4586.05	0.42287	93.4777	1.45045	0
4587.02	0.04058	93.4777	1.45045	0
4588.23	0.28915	93.4777	1.45045	0
4589.2	0.5725	93.4777	1.45045	0
4590.17	1.31747	93.4777	1.45045	0
4591.14	0.16364	93.4778	1.45045	0
4592.11	0.14814	93.4778	1.45045	0
4593.08	0.0434	93.4778	1.45045	0
4594.05	0.01085	93.4778	1.45045	0
4595.02	1.14037	93.4778	1.45045	0
4596.24	1.03443	93.4778	1.45045	0
4597.21	0.48297	93.4778	1.45045	0
4598.18	0.59494	93.4778	1.45045	0
4599.14	0.00301	93.4778	1.45045	0
4600.11	0.73155	93.4779	1.45045	0
4601.08	0.96173	93.4779	1.45045	0
4602.05	0.36445	93.4779	1.45045	0
4603.02	0.98069	93.4779	1.45045	0
4604.23	0.11374	93.4779	1.45045	0
4605.2	0.04356	93.4779	1.45045	0
4606.17	0.33681	93.4779	1.45045	0
4607.14	0.14265	93.4779	1.45045	0
4608.11	0.19011	93.4779	1.45045	0
4609.08	0.27196	93.478	1.45045	0
4610.05	0.15231	93.478	1.45045	0
4611.02	0.08049	93.478	1.45045	0
4612.23	0.69566	93.478	1.45045	0
4613.19	0.73614	93.478	1.45045	0
4614.16	0.39731	93.478	1.45045	0
4615.13	1.04493	93.478	1.45045	0
4616.1	0.47921	93.478	1.45045	0
4617.07	1.20427	93.4781	1.45045	0
4618.04	0.35323	93.4781	1.45045	0
4619.24	0.23084	93.4781	1.45045	0
4620.21	0.44525	93.4781	1.45045	0
4621.18	0.19558	93.4781	1.45045	0
4622.15	0.24681	93.4781	1.45045	0
4623.12	0.54173	93.4781	1.45045	0
4624.08	0.5842	93.4781	1.45045	0
4625.05	0.21835	93.4781	1.45045	0
4626.02	0.04729	93.4782	1.45045	0
4627.23	0.60103	93.4782	1.45045	0
4628.19	0.49747	93.4782	1.45045	0
4629.16	0.4089	93.4782	1.45045	0
4630.13	0.72704	93.4782	1.45045	0
4631.09	1.18768	93.4782	1.45045	0
4632.06	0.162	93.4782	1.45045	0
4633.03	0.43545	93.4782	1.45045	0
4634.23	0.53133	93.4783	1.45045	0
4635.2	0.06015	93.4783	1.45045	0
4636.17	0.52736	93.4783	1.45045	0
4637.13	0.68844	93.4783	1.45045	0
4638.1	0.94341	93.4783	1.45045	0
4639.06	0.07952	93.4783	1.45045	0
4640.03	0.62015	93.4783	1.45045	0
4641.24	0.4935	93.4783	1.45045	0
4642.2	0.33604	93.4783	1.45045	0
4643.17	0.26617	93.4784	1.45045	0
4644.13	0.13982	93.4784	1.45045	0
4645.1	1.07264	93.4784	1.45045	0
4646.07	0.32186	93.4784	1.45045	0
4647.03	0.44354	93.4784	1.45045	0
4648.24	0.77835	93.4784	1.45045	0
4649.2	0.56955	93.4784	1.45045	0
4650.17	0.54282	93.4784	1.45045	0
4651.13	0.16439	93.4784	1.45045	0
4652.1	0.44918	93.4785	1.45045	0
4653.06	0.07729	93.4785	1.45045	0
4654.03	0.06718	93.4785	1.45045	0
4655.23	0.6596	93.4785	1.45045	0
4656.2	0.60925	93.4785	1.45045	0
4657.16	1.03388	93.4785	1.45045	0
4658.12	0.40003	93.4785	1.45045	0
4659.09	0.50512	93.4785	1.45045	0
4660.05	0.0754	93.4785	1.45045	0
4661.02	0.44475	93.4786	1.45045	0
4662.22	0.2442	93.4786	1.45045	0
4663.18	0.45302	93.4786	1.45045	0
4664.15	1.26628	93.4786	1.45045	0
4665.11	0.431	93.4786	1.45045	0
4666.07	0.22674	93.4786	1.45045	0
4667.04	0.36465	93.4786	1.45045	0
4668	0.15645	93.4786	1.45045	0
4669.2	0.26841	93.4786	1.45045	0
4670.17	0.58547	93.4787	1.45045	0
4671.13	0.28974	93.4787	1.45045	0
4672.09	0.06253	93.4787	1.45045	0
4673.06	0.5618	93.4787	1.45045	0
4674.02	0.30423	93.4787	1.45045	0
4675.22	0.13711	93.4787	1.45045	0
4676.18	0.1349	93.4787	1.45045	0
4677.15	0.13864	93.4787	1.45045	0
4678.11	0.23783	93.4788	1.45045	0
4679.07	0.04236	93.4788	1.45045	0
4680.03	0.07303	93.4788	1.45045	0
4681	0.12024	93.4788	1.45045	0
4682.2	0.07472	93.4788	1.45045	0
4683.16	0.31628	93.4788	1.45045	0
4684.12	0.34135	93.4788	1.45045	0
4685.08	0.54906	93.4788	1.45045	0
4686.04	0.51247	93.4788	1.45045	0
4687.01	0.81226	93.4789	1.45045	0
4688.21	0.66355	93.4789	1.45045	0
4689.17	0.49664	93.4789	1.45044	0
4690.13	1.23133	93.4789	1.45044	0
4691.09	0.79971	93.4789	1.45044	0
4692.05	0.74408	93.4789	1.45044	0
4693.01	1.23076	93.4789	1.45044	0
4694.21	0.76475	93.4789	1.45044	0
4695.17	1.02981	93.4789	1.45044	0
4696.13	0.62173	93.479	1.45044	0
4697.1	0.60198	93.479	1.45044	0
4698.06	0.8389	93.479	1.45044	0
4699.02	0.32968	93.479	1.45044	0
4700.22	0.98407	93.479	1.45044	0
4701.18	0.08645	93.479	1.45044	0
4702.14	0.31563	93.479	1.45044	0
4703.1	0.40226	93.479	1.45044	0
4704.06	0.83956	93.479	1.45044	0
4705.02	0.57443	93.4791	1.45044	0
4706.22	0.18092	93.4791	1.45044	0
4707.17	0.12478	93.4791	1.45044	0
4708.13	0.61004	93.4791	1.45044	0
4709.09	0.06912	93.4791	1.45044	0
4710.05	1.46451	93.4791	1.45044	0
4711.01	0.1618	93.4791	1.45044	0
4712.21	0.99161	93.4791	1.45044	0
4713.17	0.36183	93.4791	1.45044	0
4714.13	0.14185	93.4792	1.45044	0
4715.09	0.27877	93.4792	1.45044	0
4716.05	0.10423	93.4792	1.45044	0
4717	0.42056	93.4792	1.45044	0
4718.2	0.66419	93.4792	1.45044	0
4719.16	1.23767	93.4792	1.45044	0
4720.12	0.2837	93.4792	1.45044	0
4721.08	0.43508	93.4792	1.45044	0
4722.03	0.01221	93.4792	1.45044	0
4722.99	1.32284	93.4793	1.45044	0
4724.19	1.14831	93.4793	1.45044	0
4725.15	0.33824	93.4793	1.45044	0
4726.11	0.32951	93.4793	1.45044	0
4727.06	1.07039	93.4793	1.45044	0
4728.02	0.45668	93.4793	1.45044	0
4728.98	0.08751	93.4793	1.45044	0
4730.17	0.07664	93.4793	1.45044	0
4731.13	0.60996	93.4793	1.45044	0
4732.09	0.36173	93.4794	1.45044	0
4733.05	0.23287	93.4794	1.45044	0
4734	0.48513	93.4794	1.45044	0
4735.2	0.1422	93.4794	1.45044	0
4736.16	0.58586	93.4794	1.45044	0
4737.11	0.69215	93.4794	1.45044	0
4738.07	0.12703	93.4794	1.45044	0
4739.03	0.11377	93.4794	1.45044	0
4739.98	0.46286	93.4794	1.45044	0
4741.18	0.46388	93.4795	1.45044	0
4742.13	0.3166	93.4795	1.45044	0
4743.09	1.25454	93.4795	1.45044	0
4744.05	0.23056	93.4795	1.45044	0
4745	0.18238	93.4795	1.45044	0
4746.2	0.22315	93.4795	1.45044	0
4747.15	0.30705	93.4795	1.45044	0
4748.11	0.08679	93.4795	1.45044	0
4749.06	0.14803	93.4795	1.45044	0
4750.02	0.20364	93.4796	1.45044	0
4750.97	0.42227	93.4796	1.45044	0
4752.17	0.00809	93.4796	1.45044	0
4753.12	0.34708	93.4796	1.45044	0
4754.08	0.69519	93.4796	1.45044	0
4755.03	0.52064	93.4796	1.45044	0
4755.99	0.53859	93.4796	1.45044	0
4757.18	0.19176	93.4796	1.45044	0
4758.13	0.58955	93.4796	1.45044	0
4759.09	0.02765	93.4797	1.45044	0
4760.04	0.46831	93.4797	1.45044	0
4761	0.39489	93.4797	1.45044	0
4762.19	0.21786	93.4797	1.45044	0
4763.14	0.30386	93.4797	1.45044	0
4764.1	0.61323	93.4797	1.45044	0
4765.05	0.03866	93.4797	1.45044	0
4766.01	0.17167	93.4797	1.45044	0
4766.96	0.24049	93.4797	1.45044	0
4768.15	0.03471	93.4798	1.45044	0
4769.11	0.31556	93.4798	1.45044	0
4770.06	0.43475	93.4798	1.45044	0
4771.01	0.19174	93.4798	1.45044	0
4771.97	0.79585	93.4798	1.45044	0
4773.16	0.41207	93.4798	1.45044	0
4774.11	0.19655	93.4798	1.45044	0
4775.06	0.32899	93.4798	1.45044	0
4776.02	0.60389	93.4798	1.45044	0
4776.97	0.82112	93.4799	1.45044	0
4778.16	0.23254	93.4799	1.45044	0
4779.11	0.54457	93.4799	1.45044	0
4780.06	0.18194	93.4799	1.45044	0
4781.02	0.54848	93.4799	1.45044	0
4781.97	0.58992	93.4799	1.45044	0
4783.16	0.34126	93.4799	1.45044	0
4784.11	0.20591	93.4799	1.45044	0
4785.06	0.61439	93.4799	1.45044	0
4786.02	0.13553	93.48	1.45044	0
4786.97	0.50711	93.48	1.45044	0
4788.16	0.15357	93.48	1.45044	0
4789.11	0.23136	93.48	1.45044	0
4790.06	0.11554	93.48	1.45044	0
4791.01	0.02008	93.48	1.45044	0
4791.96	0.38551	93.48	1.45044	0
4793.15	1.08986	93.48	1.45044	0
4794.1	0.66593	93.48	1.45044	0
4795.05	0.12568	93.4801	1.45044	0
4796	0.53643	93.4801	1.45044	0
4796.95	0.48202	93.4801	1.45044	0
4798.14	0.21081	93.4801	1.45044	0
4799.09	0.24581	93.4801	1.45044	0
4800.04	0.3431	93.4801	1.45044	0
4800.99	0.05445	93.4801	1.45044	0
4802.18	0.7079	93.4801	1.45044	0
4803.13	0.28364	93.4801	1.45044	0
4804.08	0.38289	93.4801	1.45044	0
4805.03	0.13771	93.4802	1.45044	0
4805.98	0.28716	93.4802	1.45044	0
4807.17	0.02447	93.4802	1.45044	0
4808.12	0.20458	93.4802	1.45044	0
4809.07	0.56735	93.4802	1.45044	0
4810.02	0.89006	93.4802	1.45044	0
4810.97	0.26453	93.4802	1.45044	0
4812.15	1.06536	93.4802	1.45044	0
4813.1	0.41503	93.4802	1.45044	0
4814.05	0.91323	93.4803	1.45044	0
4815	0.38845	93.4803	1.45044	0
4815.95	0.54041	93.4803	1.45044	0
4817.14	0.08834	93.4803	1.45044	0
4818.09	0.22091	93.4803	1.45044	0
4819.03	0.15873	93.4803	1.45044	0
4819.98	0.37761	93.4803	1.45044	0
4821.17	0.06751	93.4803	1.45044	0
4822.12	0.09963	93.4803	1.45044	0
4823.06	0.16624	93.4804	1.45044	0
4824.01	0.18453	93.4804	1.45044	0
4824.96	0.8208	93.4804	1.45044	0
4826.15	0.27232	93.4804	1.45044	0
4827.09	0.03035	93.4804	1.45044	0
4828.04	0.33171	93.4804	1.45044	0
4828.99	0.7177	93.4804	1.45044	0
4830.17	0.30568	93.4804	1.45044	0
4831.12	0.59093	93.4804	1.45044	0
4832.07	0.48915	93.4805	1.45044	0
4833.02	0.09816	93.4805	1.45044	0
4833.96	0.86398	93.4805	1.45044	0
4835.15	0.81734	93.4805	1.45044	0
4836.09	0.37546	93.4805	1.45044	0
4837.04	0.19415	93.4805	1.45044	0
4837.99	0.37022	93.4805	1.45044	0
4839.17	0.12571	93.4805	1.45044	0
4840.12	0.21026	93.4805	1.45044	0
4841.06	0.48859	93.4805	1.45044	0
4842.01	0.156	93.4806	1.45044	0
4842.96	0.53494	93.4806	1.45044	0
4844.14	0.09455	93.4806	1.45044	0
4845.08	0.76882	93.4806	1.45044	0
4846.03	0.27631	93.4806	1.45044	0
4846.98	0.6329	93.4806	1.45044	0
4848.16	0.10092	93.4806	1.45044	0
4849.1	0.5304	93.4806	1.45044	0
4850.05	0.68449	93.4806	1.45044	0
4850.99	0.13228	93.4807	1.45044	0
4851.94	0.08016	93.4807	1.45044	0
4853.12	0.50091	93.4807	1.45043	0
4854.07	0.0075	93.4807	1.45043	0
4855.01	0.47418	93.4807	1.45043	0
4855.96	0.13386	93.4807	1.45043	0
4857.14	0.04409	93.4807	1.45043	0
4858.08	0.52649	93.4807	1.45043	0
4859.03	0.74219	93.4807	1.45043	0
4859.97	0.37827	93.4808	1.45043	0
4861.15	0.90278	93.4808	1.45043	0
4862.1	0.6998	93.4808	1.45043	0
4863.04	0.6857	93.4808	1.45043	0
4863.98	0.56975	93.4808	1.45043	0
4864.93	0.17099	93.4808	1.45043	0
4866.11	0.81759	93.4808	1.45043	0
4867.05	0.21172	93.4808	1.45043	0
4868	0.11595	93.4808	1.45043	0
4868.94	0.02329	93.4808	1.45043	0
4870.12	0.12729	93.4809	1.45043	0
4871.06	1.07056	93.4809	1.45043	0
4872.01	0.34246	93.4809	1.45043	0
4872.95	0.54553	93.4809	1.45043	0
4874.13	0.73303	93.4809	1.45043	0
4875.07	0.8018	93.4809	1.45043	0
4876.01	0.53719	93.4809	1.45043	0
4876.96	0.54816	93.4809	1.45043	0
4878.14	0.08366	93.4809	1.45043	0
4879.08	0.13991	93.481	1.45043	0
4880.02	0.97254	93.481	1.45043	0
4880.96	0.15292	93.481	1.45043	0
4882.14	1.23748	93.481	1.45043	0
4883.08	0.04614	93.481	1.45043	0
4884.03	0.17526	93.481	1.45043	0
4884.97	0.28803	93.481	1.45043	0
4886.14	0.2881	93.481	1.45043	0
4887.09	0.54247	93.481	1.45043	0
4888.03	0.50908	93.4811	1.45043	0
4888.97	0.30111	93.4811	1.45043	0
4890.15	0.32843	93.4811	1.45043	0
4891.09	0.55255	93.4811	1.45043	0
4892.03	0.64537	93.4811	1.45043	0
4892.97	0.35966	93.4811	1.45043	0
4894.15	0.38761	93.4811	1.45043	0
4895.09	0.29594	93.4811	1.45043	0
4896.03	0.17469	93.4811	1.45043	0
4896.97	1.06974	93.4811	1.45043	0
4898.15	0.45326	93.4812	1.45043	0
4899.09	0.5485	93.4812	1.45043	0
4900.03	0.02385	93.4812	1.45043	0
4900.97	0.0079	93.4812	1.45043	0
4902.14	0.03092	93.4812	1.45043	0
4903.08	0.000957018	93.4812	1.45043	0
4904.02	0.01431	93.4812	1.45043	0
4904.96	0.11368	93.4812	1.45043	0
4906.14	0.2013	93.4812	1.45043	0
4907.08	0.07674	93.4813	1.45043	0
4908.02	0.33163	93.4813	1.45043	0
4908.96	0.34554	93.4813	1.45043	0
4910.13	0.43599	93.4813	1.45043	0
4911.07	0.42814	93.4813	1.45043	0
4912.01	0.58933	93.4813	1.45043	0
4912.95	0.34077	93.4813	1.45043	0
4914.12	0.30404	93.4813	1.45043	0
4915.06	0.51552	93.4813	1.45043	0
4916	0.87088	93.4813	1.45043	0
4916.94	0.60131	93.4814	1.45043	0
4918.11	0.24455	93.4814	1.45043	0
4919.05	0.39532	93.4814	1.45043	0
4919.99	0.177	93.4814	1.45043	0
4920.93	0.18151	93.4814	1.45043	0
4922.1	0.34249	93.4814	1.45043	0
4923.04	0.01237	93.4814	1.45043	0
4923.98	0.68073	93.4814	1.45043	0
4924.91	0.0676	93.4814	1.45043	0
4926.09	0.0521	93.4815	1.45043	0
4927.02	0.47711	93.4815	1.45043	0
4927.96	0.19676	93.4815	1.45043	0
4929.13	0.4908	93.4815	1.45043	0
4930.07	0.27548	93.4815	1.45043	0
4931.01	0.13135	93.4815	1.45043	0
4931.95	0.07207	93.4815	1.45043	0
4933.12	0.13104	93.4815	1.45043	0
4934.05	0.2109	93.4815	1.45043	0
4934.99	0.07934	93.4815	1.45043	0
4935.93	1.35423	93.4816	1.45043	0
4937.1	0.08256	93.4816	1.45043	0
4938.04	0.54096	93.4816	1.45043	0
4938.97	0.96183	93.4816	1.45043	0
4939.91	0.345	93.4816	1.45043	0
4941.08	0.26289	93.4816	1.45043	0
4942.02	0.55312	93.4816	1.45043	0
4942.95	0.18299	93.4816	1.45043	0
4944.12	0.6475	93.4816	1.45043	0
4945.06	0.79629	93.4816	1.45043	0
4945.99	1.31916	93.4817	1.45043	0
4946.93	0.80307	93.4817	1.45043	0
4948.1	0.0402	93.4817	1.45043	0
4949.03	0.38048	93.4817	1.45043	0
4949.97	0.63915	93.4817	1.45043	0
4950.9	0.00601	93.4817	1.45043	0
4952.07	0.62681	93.4817	1.45043	0
4953.01	0.03497	93.4817	1.45043	0
4953.94	1.23631	93.4817	1.45043	0
4955.11	0.09165	93.4818	1.45043	0
4956.05	0.56732	93.4818	1.45043	0
4956.98	0.5263	93.4818	1.45043	0
4957.92	0.31745	93.4818	1.45043	0
4959.08	0.26763	93.4818	1.45043	0
4960.02	0.55816	93.4818	1.45043	0
4960.95	0.2918	93.4818	1.45043	0
4962.12	0.60752	93.4818	1.45043	0
4963.05	0.38832	93.4818	1.45043	0
4963.99	0.3616	93.4818	1.45043	0
4964.92	0.57488	93.4819	1.45043	0
4966.09	0.46321	93.4819	1.45043	0
4967.02	0.40453	93.4819	1.45043	0
4967.96	0.84525	93.4819	1.45043	0
4969.12	0.43832	93.4819	1.45043	0
4970.06	0.16849	93.4819	1.45043	0
4970.99	0.22374	93.4819	1.45043	0
4971.92	0.86605	93.4819	1.45043	0
4973.09	0.25332	93.4819	1.45043	0
4974.02	0.78914	93.4819	1.45043	0
4974.95	0.37218	93.482	1.45043	0
4976.12	0.2161	93.482	1.45043	0
4977.05	0.40977	93.482	1.45043	0
4977.99	0.06279	93.482	1.45043	0
4978.92	0.19839	93.482	1.45043	0
4980.08	0.55971	93.482	1.45043	0
4981.02	0.49883	93.482	1.45043	0
4981.95	0.91524	93.482	1.45043	0
4983.11	0.30751	93.482	1.45043	0
4984.04	0.5682	93.482	1.45043	0
4984.98	0.63853	93.4821	1.45043	0
4985.91	0.09256	93.4821	1.45043	0
4987.07	0.7956	93.4821	1.45043	0
4988	1.08527	93.4821	1.45043	0
4988.93	0.61408	93.4821	1.45043	0
4990.1	0.48893	93.4821	1.45043	0
4991.03	0.35064	93.4821	1.45043	0
4991.96	0.27693	93.4821	1.45043	0
4992.89	0.03304	93.4821	1.45043	0
4994.06	0.72904	93.4822	1.45043	0
4994.99	0.12166	93.4822	1.45043	0
4995.92	0.37811	93.4822	1.45043	0
4997.08	0.12417	93.4822	1.45043	0
4998.01	1.19541	93.4822	1.45043	0
4998.94	1.21026	93.4822	1.45043	0
5000.1	1.22499	93.4822	1.45043	0
